July 4, 2024   23:23:18
Amperometric i-t Curve
File: 1
Data Source:  Experiment
Instrument Model:  CHI760E
Header: 
Note: 

Init E (V) = 0.3
Sample Interval (s) = 0.1
Run Time (sec) = 4e+3
Quiet Time (sec) = 0
Sensitivity (A/V) = 1e-4

Results:

Channel 1:

Time/sec, Current/A

1.000e-1, 1.615e-4
2.000e-1, 1.617e-4
3.000e-1, 1.627e-4
4.000e-1, 1.627e-4
5.000e-1, 1.599e-4
6.000e-1, 1.634e-4
7.000e-1, 1.686e-4
8.000e-1, 1.703e-4
9.000e-1, 1.706e-4
1.000e+0, 1.702e-4
1.100e+0, 1.682e-4
1.200e+0, 1.660e-4
1.300e+0, 1.675e-4
1.400e+0, 1.717e-4
1.500e+0, 1.750e-4
1.600e+0, 1.740e-4
1.700e+0, 1.737e-4
1.800e+0, 1.731e-4
1.900e+0, 1.721e-4
2.000e+0, 1.693e-4
2.100e+0, 1.734e-4
2.200e+0, 1.774e-4
2.300e+0, 1.792e-4
2.400e+0, 1.797e-4
2.500e+0, 1.790e-4
2.600e+0, 1.785e-4
2.700e+0, 1.784e-4
2.800e+0, 1.738e-4
2.900e+0, 1.757e-4
3.000e+0, 1.797e-4
3.100e+0, 1.821e-4
3.200e+0, 1.822e-4
3.300e+0, 1.830e-4
3.400e+0, 1.827e-4
3.500e+0, 1.818e-4
3.600e+0, 1.782e-4
3.700e+0, 1.814e-4
3.800e+0, 1.851e-4
3.900e+0, 1.869e-4
4.000e+0, 1.868e-4
4.100e+0, 1.870e-4
4.200e+0, 1.859e-4
4.300e+0, 1.850e-4
4.400e+0, 1.792e-4
4.500e+0, 1.826e-4
4.600e+0, 1.859e-4
4.700e+0, 1.881e-4
4.800e+0, 1.890e-4
4.900e+0, 1.888e-4
5.000e+0, 1.888e-4
5.100e+0, 1.879e-4
5.200e+0, 1.828e-4
5.300e+0, 1.836e-4
5.400e+0, 1.882e-4
5.500e+0, 1.912e-4
5.600e+0, 1.918e-4
5.700e+0, 1.925e-4
5.800e+0, 1.918e-4
5.900e+0, 1.903e-4
6.000e+0, 1.866e-4
6.100e+0, 1.865e-4
6.200e+0, 1.907e-4
6.300e+0, 1.945e-4
6.400e+0, 1.956e-4
6.500e+0, 1.961e-4
6.600e+0, 1.955e-4
6.700e+0, 1.953e-4
6.800e+0, 1.935e-4
6.900e+0, 1.926e-4
7.000e+0, 1.964e-4
7.100e+0, 2.001e-4
7.200e+0, 2.010e-4
7.300e+0, 2.005e-4
7.400e+0, 2.006e-4
7.500e+0, 2.000e-4
7.600e+0, 1.973e-4
7.700e+0, 1.952e-4
7.800e+0, 1.986e-4
7.900e+0, 2.024e-4
8.000e+0, 2.032e-4
8.100e+0, 2.037e-4
8.200e+0, 2.033e-4
8.300e+0, 2.024e-4
8.400e+0, 1.983e-4
8.500e+0, 1.956e-4
8.600e+0, 1.992e-4
8.700e+0, 2.029e-4
8.800e+0, 2.037e-4
8.900e+0, 2.035e-4
9.000e+0, 2.041e-4
9.100e+0, 2.040e-4
9.200e+0, 2.010e-4
9.300e+0, 1.977e-4
9.400e+0, 2.010e-4
9.500e+0, 2.043e-4
9.600e+0, 2.056e-4
9.700e+0, 2.069e-4
9.800e+0, 2.069e-4
9.900e+0, 2.069e-4
1.000e+1, 2.038e-4
1.010e+1, 1.973e-4
1.020e+1, 2.012e-4
1.030e+1, 2.049e-4
1.040e+1, 2.069e-4
1.050e+1, 2.080e-4
1.060e+1, 2.085e-4
1.070e+1, 2.102e-4
1.080e+1, 2.078e-4
1.090e+1, 2.007e-4
1.100e+1, 2.045e-4
1.110e+1, 2.078e-4
1.120e+1, 2.097e-4
1.130e+1, 2.107e-4
1.140e+1, 2.121e-4
1.150e+1, 2.118e-4
1.160e+1, 2.101e-4
1.170e+1, 2.099e-4
1.180e+1, 2.119e-4
1.190e+1, 2.135e-4
1.200e+1, 2.148e-4
1.210e+1, 2.147e-4
1.220e+1, 2.128e-4
1.230e+1, 2.116e-4
1.240e+1, 2.075e-4
1.250e+1, 2.062e-4
1.260e+1, 2.094e-4
1.270e+1, 2.118e-4
1.280e+1, 2.131e-4
1.290e+1, 2.125e-4
1.300e+1, 2.123e-4
1.310e+1, 2.107e-4
1.320e+1, 2.068e-4
1.330e+1, 2.098e-4
1.340e+1, 2.122e-4
1.350e+1, 2.131e-4
1.360e+1, 2.130e-4
1.370e+1, 2.135e-4
1.380e+1, 2.129e-4
1.390e+1, 2.109e-4
1.400e+1, 2.098e-4
1.410e+1, 2.138e-4
1.420e+1, 2.165e-4
1.430e+1, 2.165e-4
1.440e+1, 2.161e-4
1.450e+1, 2.162e-4
1.460e+1, 2.153e-4
1.470e+1, 2.077e-4
1.480e+1, 2.100e-4
1.490e+1, 2.132e-4
1.500e+1, 2.142e-4
1.510e+1, 2.147e-4
1.520e+1, 2.146e-4
1.530e+1, 2.138e-4
1.540e+1, 2.099e-4
1.550e+1, 2.091e-4
1.560e+1, 2.129e-4
1.570e+1, 2.160e-4
1.580e+1, 2.164e-4
1.590e+1, 2.165e-4
1.600e+1, 2.174e-4
1.610e+1, 2.170e-4
1.620e+1, 2.115e-4
1.630e+1, 2.138e-4
1.640e+1, 2.183e-4
1.650e+1, 2.197e-4
1.660e+1, 2.212e-4
1.670e+1, 2.218e-4
1.680e+1, 2.216e-4
1.690e+1, 2.206e-4
1.700e+1, 2.170e-4
1.710e+1, 2.191e-4
1.720e+1, 2.220e-4
1.730e+1, 2.234e-4
1.740e+1, 2.238e-4
1.750e+1, 2.235e-4
1.760e+1, 2.227e-4
1.770e+1, 2.208e-4
1.780e+1, 2.181e-4
1.790e+1, 2.212e-4
1.800e+1, 2.243e-4
1.810e+1, 2.239e-4
1.820e+1, 2.236e-4
1.830e+1, 2.228e-4
1.840e+1, 2.226e-4
1.850e+1, 2.216e-4
1.860e+1, 2.211e-4
1.870e+1, 2.244e-4
1.880e+1, 2.270e-4
1.890e+1, 2.276e-4
1.900e+1, 2.257e-4
1.910e+1, 2.252e-4
1.920e+1, 2.239e-4
1.930e+1, 2.214e-4
1.940e+1, 2.204e-4
1.950e+1, 2.223e-4
1.960e+1, 2.242e-4
1.970e+1, 2.238e-4
1.980e+1, 2.233e-4
1.990e+1, 2.230e-4
2.000e+1, 2.225e-4
2.010e+1, 2.224e-4
2.020e+1, 2.258e-4
2.030e+1, 2.282e-4
2.040e+1, 2.277e-4
2.050e+1, 2.271e-4
2.060e+1, 2.266e-4
2.070e+1, 2.260e-4
2.080e+1, 2.240e-4
2.090e+1, 2.266e-4
2.100e+1, 2.287e-4
2.110e+1, 2.297e-4
2.120e+1, 2.281e-4
2.130e+1, 2.282e-4
2.140e+1, 2.276e-4
2.150e+1, 2.260e-4
2.160e+1, 2.270e-4
2.170e+1, 2.287e-4
2.180e+1, 2.309e-4
2.190e+1, 2.307e-4
2.200e+1, 2.303e-4
2.210e+1, 2.307e-4
2.220e+1, 2.292e-4
2.230e+1, 2.296e-4
2.240e+1, 2.315e-4
2.250e+1, 2.339e-4
2.260e+1, 2.331e-4
2.270e+1, 2.324e-4
2.280e+1, 2.323e-4
2.290e+1, 2.307e-4
2.300e+1, 2.301e-4
2.310e+1, 2.320e-4
2.320e+1, 2.338e-4
2.330e+1, 2.345e-4
2.340e+1, 2.334e-4
2.350e+1, 2.323e-4
2.360e+1, 2.317e-4
2.370e+1, 2.280e-4
2.380e+1, 2.296e-4
2.390e+1, 2.314e-4
2.400e+1, 2.318e-4
2.410e+1, 2.314e-4
2.420e+1, 2.325e-4
2.430e+1, 2.320e-4
2.440e+1, 2.302e-4
2.450e+1, 2.291e-4
2.460e+1, 2.323e-4
2.470e+1, 2.342e-4
2.480e+1, 2.338e-4
2.490e+1, 2.338e-4
2.500e+1, 2.330e-4
2.510e+1, 2.313e-4
2.520e+1, 2.301e-4
2.530e+1, 2.328e-4
2.540e+1, 2.351e-4
2.550e+1, 2.346e-4
2.560e+1, 2.340e-4
2.570e+1, 2.326e-4
2.580e+1, 2.312e-4
2.590e+1, 2.324e-4
2.600e+1, 2.352e-4
2.610e+1, 2.378e-4
2.620e+1, 2.370e-4
2.630e+1, 2.368e-4
2.640e+1, 2.361e-4
2.650e+1, 2.345e-4
2.660e+1, 2.314e-4
2.670e+1, 2.331e-4
2.680e+1, 2.356e-4
2.690e+1, 2.370e-4
2.700e+1, 2.374e-4
2.710e+1, 2.374e-4
2.720e+1, 2.368e-4
2.730e+1, 2.352e-4
2.740e+1, 2.304e-4
2.750e+1, 2.311e-4
2.760e+1, 2.322e-4
2.770e+1, 2.327e-4
2.780e+1, 2.339e-4
2.790e+1, 2.346e-4
2.800e+1, 2.343e-4
2.810e+1, 2.300e-4
2.820e+1, 2.299e-4
2.830e+1, 2.313e-4
2.840e+1, 2.334e-4
2.850e+1, 2.326e-4
2.860e+1, 2.338e-4
2.870e+1, 2.333e-4
2.880e+1, 2.325e-4
2.890e+1, 2.341e-4
2.900e+1, 2.368e-4
2.910e+1, 2.388e-4
2.920e+1, 2.375e-4
2.930e+1, 2.366e-4
2.940e+1, 2.365e-4
2.950e+1, 2.351e-4
2.960e+1, 2.329e-4
2.970e+1, 2.361e-4
2.980e+1, 2.390e-4
2.990e+1, 2.393e-4
3.000e+1, 2.396e-4
3.010e+1, 2.397e-4
3.020e+1, 2.392e-4
3.030e+1, 2.367e-4
3.040e+1, 2.372e-4
3.050e+1, 2.397e-4
3.060e+1, 2.411e-4
3.070e+1, 2.416e-4
3.080e+1, 2.417e-4
3.090e+1, 2.412e-4
3.100e+1, 2.408e-4
3.110e+1, 2.368e-4
3.120e+1, 2.391e-4
3.130e+1, 2.417e-4
3.140e+1, 2.413e-4
3.150e+1, 2.420e-4
3.160e+1, 2.421e-4
3.170e+1, 2.407e-4
3.180e+1, 2.381e-4
3.190e+1, 2.387e-4
3.200e+1, 2.410e-4
3.210e+1, 2.422e-4
3.220e+1, 2.422e-4
3.230e+1, 2.422e-4
3.240e+1, 2.412e-4
3.250e+1, 2.404e-4
3.260e+1, 2.398e-4
3.270e+1, 2.420e-4
3.280e+1, 2.444e-4
3.290e+1, 2.440e-4
3.300e+1, 2.446e-4
3.310e+1, 2.440e-4
3.320e+1, 2.413e-4
3.330e+1, 2.392e-4
3.340e+1, 2.413e-4
3.350e+1, 2.433e-4
3.360e+1, 2.434e-4
3.370e+1, 2.436e-4
3.380e+1, 2.433e-4
3.390e+1, 2.408e-4
3.400e+1, 2.398e-4
3.410e+1, 2.418e-4
3.420e+1, 2.435e-4
3.430e+1, 2.437e-4
3.440e+1, 2.438e-4
3.450e+1, 2.442e-4
3.460e+1, 2.390e-4
3.470e+1, 2.386e-4
3.480e+1, 2.404e-4
3.490e+1, 2.422e-4
3.500e+1, 2.427e-4
3.510e+1, 2.432e-4
3.520e+1, 2.429e-4
3.530e+1, 2.415e-4
3.540e+1, 2.409e-4
3.550e+1, 2.437e-4
3.560e+1, 2.460e-4
3.570e+1, 2.467e-4
3.580e+1, 2.471e-4
3.590e+1, 2.468e-4
3.600e+1, 2.446e-4
3.610e+1, 2.395e-4
3.620e+1, 2.411e-4
3.630e+1, 2.435e-4
3.640e+1, 2.437e-4
3.650e+1, 2.444e-4
3.660e+1, 2.436e-4
3.670e+1, 2.429e-4
3.680e+1, 2.417e-4
3.690e+1, 2.439e-4
3.700e+1, 2.469e-4
3.710e+1, 2.479e-4
3.720e+1, 2.482e-4
3.730e+1, 2.475e-4
3.740e+1, 2.477e-4
3.750e+1, 2.442e-4
3.760e+1, 2.470e-4
3.770e+1, 2.506e-4
3.780e+1, 2.496e-4
3.790e+1, 2.491e-4
3.800e+1, 2.485e-4
3.810e+1, 2.482e-4
3.820e+1, 2.460e-4
3.830e+1, 2.485e-4
3.840e+1, 2.517e-4
3.850e+1, 2.523e-4
3.860e+1, 2.525e-4
3.870e+1, 2.525e-4
3.880e+1, 2.522e-4
3.890e+1, 2.494e-4
3.900e+1, 2.488e-4
3.910e+1, 2.508e-4
3.920e+1, 2.531e-4
3.930e+1, 2.539e-4
3.940e+1, 2.539e-4
3.950e+1, 2.532e-4
3.960e+1, 2.519e-4
3.970e+1, 2.482e-4
3.980e+1, 2.508e-4
3.990e+1, 2.538e-4
4.000e+1, 2.532e-4
4.010e+1, 2.540e-4
4.020e+1, 2.538e-4
4.030e+1, 2.527e-4
4.040e+1, 2.511e-4
4.050e+1, 2.525e-4
4.060e+1, 2.554e-4
4.070e+1, 2.558e-4
4.080e+1, 2.557e-4
4.090e+1, 2.553e-4
4.100e+1, 2.540e-4
4.110e+1, 2.513e-4
4.120e+1, 2.538e-4
4.130e+1, 2.564e-4
4.140e+1, 2.574e-4
4.150e+1, 2.570e-4
4.160e+1, 2.574e-4
4.170e+1, 2.566e-4
4.180e+1, 2.540e-4
4.190e+1, 2.536e-4
4.200e+1, 2.555e-4
4.210e+1, 2.577e-4
4.220e+1, 2.579e-4
4.230e+1, 2.574e-4
4.240e+1, 2.573e-4
4.250e+1, 2.570e-4
4.260e+1, 2.557e-4
4.270e+1, 2.575e-4
4.280e+1, 2.592e-4
4.290e+1, 2.595e-4
4.300e+1, 2.584e-4
4.310e+1, 2.581e-4
4.320e+1, 2.575e-4
4.330e+1, 2.506e-4
4.340e+1, 2.511e-4
4.350e+1, 2.539e-4
4.360e+1, 2.541e-4
4.370e+1, 2.551e-4
4.380e+1, 2.547e-4
4.390e+1, 2.527e-4
4.400e+1, 2.506e-4
4.410e+1, 2.523e-4
4.420e+1, 2.544e-4
4.430e+1, 2.542e-4
4.440e+1, 2.539e-4
4.450e+1, 2.523e-4
4.460e+1, 2.530e-4
4.470e+1, 2.565e-4
4.480e+1, 2.443e-4
4.490e+1, 2.059e-4
4.500e+1, 1.223e-4
4.510e+1, 4.911e-5
4.520e+1, 2.378e-5
4.530e+1, 1.912e-5
4.540e+1, 1.619e-5
4.550e+1, 9.196e-6
4.560e+1, 1.330e-5
4.570e+1, 5.518e-6
4.580e+1, 3.349e-6
4.590e+1, 3.163e-6
4.600e+1, 3.217e-6
4.610e+1, 3.138e-6
4.620e+1, 3.026e-6
4.630e+1, 3.115e-6
4.640e+1, 3.578e-6
