July 4, 2024   23:46:56
Amperometric i-t Curve
File: 0.4-0.03-2
Data Source:  Experiment
Instrument Model:  CHI760E
Header: 
Note: 

Init E (V) = 0.4
Sample Interval (s) = 0.03
Run Time (sec) = 4e+3
Quiet Time (sec) = 0
Sensitivity (A/V) = 1e-7

Results:

Channel 1:

Time/sec, Current/A

3.000e-2, 7.194e-8
6.000e-2, 6.767e-8
9.000e-2, 6.597e-8
1.200e-1, 6.436e-8
1.500e-1, 6.231e-8
1.800e-1, 6.131e-8
2.100e-1, 6.075e-8
2.400e-1, 6.089e-8
2.700e-1, 6.047e-8
3.000e-1, 5.945e-8
3.300e-1, 5.924e-8
3.600e-1, 5.774e-8
3.900e-1, 5.761e-8
4.200e-1, 5.787e-8
4.500e-1, 5.629e-8
4.800e-1, 5.645e-8
5.100e-1, 5.609e-8
5.400e-1, 5.543e-8
5.700e-1, 5.464e-8
6.000e-1, 5.628e-8
6.300e-1, 3.647e-8
6.600e-1, 3.576e-8
6.900e-1, 5.036e-8
7.200e-1, 5.274e-8
7.500e-1, 4.985e-8
7.800e-1, 5.290e-8
8.100e-1, 5.450e-8
8.400e-1, 5.386e-8
8.700e-1, 5.286e-8
9.000e-1, 5.205e-8
9.300e-1, 5.148e-8
9.600e-1, 5.133e-8
9.900e-1, 5.110e-8
1.020e+0, 5.083e-8
1.050e+0, 5.052e-8
1.080e+0, 5.033e-8
1.110e+0, 5.009e-8
1.140e+0, 4.985e-8
1.170e+0, 4.950e-8
1.200e+0, 4.934e-8
1.230e+0, 4.909e-8
1.260e+0, 4.936e-8
1.290e+0, 4.871e-8
1.320e+0, 4.833e-8
1.350e+0, 4.797e-8
1.380e+0, 4.881e-8
1.410e+0, 4.874e-8
1.440e+0, 4.785e-8
1.470e+0, 4.477e-8
1.500e+0, 4.606e-8
1.530e+0, 4.595e-8
1.560e+0, 4.621e-8
1.590e+0, 4.551e-8
1.620e+0, 4.546e-8
1.650e+0, 4.476e-8
1.680e+0, 4.429e-8
1.710e+0, 4.449e-8
1.740e+0, 4.441e-8
1.770e+0, 4.526e-8
1.800e+0, 4.556e-8
1.830e+0, 4.605e-8
1.860e+0, 4.567e-8
1.890e+0, 4.554e-8
1.920e+0, 4.565e-8
1.950e+0, 4.524e-8
1.980e+0, 4.449e-8
2.010e+0, 4.451e-8
2.040e+0, 4.437e-8
2.070e+0, 4.457e-8
2.100e+0, 4.475e-8
2.130e+0, 4.461e-8
2.160e+0, 4.542e-8
2.190e+0, 4.569e-8
2.220e+0, 4.549e-8
2.250e+0, 4.446e-8
2.280e+0, 4.361e-8
2.310e+0, 4.431e-8
2.340e+0, 4.447e-8
2.370e+0, 4.416e-8
2.400e+0, 4.340e-8
2.430e+0, 4.282e-8
2.460e+0, 4.250e-8
2.490e+0, 4.258e-8
2.520e+0, 4.294e-8
2.550e+0, 4.283e-8
2.580e+0, 4.231e-8
2.610e+0, 1.350e-9
2.640e+0, 5.385e-10
2.670e+0, 6.582e-10
2.700e+0, 4.549e-8
2.730e+0, 4.996e-8
2.760e+0, 4.470e-8
2.790e+0, 4.237e-8
2.820e+0, 4.189e-8
2.850e+0, 4.244e-8
2.880e+0, 4.250e-8
2.910e+0, 4.386e-8
2.940e+0, 4.344e-8
2.970e+0, 4.354e-8
3.000e+0, 4.302e-8
3.030e+0, 4.263e-8
3.060e+0, 4.229e-8
3.090e+0, 4.224e-8
3.120e+0, 4.202e-8
3.150e+0, 4.212e-8
3.180e+0, 4.224e-8
3.210e+0, 4.234e-8
3.240e+0, 4.232e-8
3.270e+0, 4.245e-8
3.300e+0, 4.241e-8
3.330e+0, 4.254e-8
3.360e+0, 4.258e-8
3.390e+0, 3.955e-8
3.420e+0, 3.722e-8
3.450e+0, 3.936e-8
3.480e+0, 4.089e-8
3.510e+0, 3.610e-8
3.540e+0, 3.451e-8
3.570e+0, 3.764e-8
3.600e+0, 3.887e-8
3.630e+0, 3.908e-8
3.660e+0, 3.374e-8
3.690e+0, 4.098e-8
3.720e+0, 4.068e-8
3.750e+0, 4.152e-8
3.780e+0, 4.209e-8
3.810e+0, 4.280e-8
3.840e+0, 4.243e-8
3.870e+0, 4.255e-8
3.900e+0, 4.238e-8
3.930e+0, 4.195e-8
3.960e+0, 4.069e-8
3.990e+0, 4.077e-8
4.020e+0, 4.099e-8
4.050e+0, 4.114e-8
4.080e+0, 4.107e-8
4.110e+0, 4.112e-8
4.140e+0, 4.098e-8
4.170e+0, 4.078e-8
4.200e+0, 4.061e-8
4.230e+0, 4.066e-8
4.260e+0, 4.034e-8
4.290e+0, 3.899e-8
4.320e+0, 3.808e-8
4.350e+0, 3.755e-8
4.380e+0, 3.730e-8
4.410e+0, 4.018e-8
4.440e+0, 4.006e-8
4.470e+0, 4.093e-8
4.500e+0, 4.120e-8
4.530e+0, 4.135e-8
4.560e+0, 4.114e-8
4.590e+0, 4.121e-8
4.620e+0, 4.088e-8
4.650e+0, 4.035e-8
4.680e+0, 4.025e-8
4.710e+0, 4.031e-8
4.740e+0, 4.028e-8
4.770e+0, 4.045e-8
4.800e+0, 4.064e-8
4.830e+0, 4.041e-8
4.860e+0, 4.024e-8
4.890e+0, 4.023e-8
4.920e+0, 4.029e-8
4.950e+0, 3.975e-8
4.980e+0, 3.946e-8
5.010e+0, 4.014e-8
5.040e+0, 3.849e-8
5.070e+0, 4.004e-8
5.100e+0, 3.648e-8
5.130e+0, 3.938e-8
5.160e+0, 3.941e-8
5.190e+0, 3.992e-8
5.220e+0, 4.021e-8
5.250e+0, 4.036e-8
5.280e+0, 4.031e-8
5.310e+0, 4.032e-8
5.340e+0, 3.995e-8
5.370e+0, 3.993e-8
5.400e+0, 3.982e-8
5.430e+0, 3.986e-8
5.460e+0, 3.988e-8
5.490e+0, 3.995e-8
5.520e+0, 3.991e-8
5.550e+0, 3.982e-8
5.580e+0, 3.956e-8
5.610e+0, 3.911e-8
5.640e+0, 3.915e-8
5.670e+0, 3.917e-8
5.700e+0, 3.912e-8
5.730e+0, 3.941e-8
5.760e+0, 3.934e-8
5.790e+0, 3.966e-8
5.820e+0, 3.955e-8
5.850e+0, 3.915e-8
5.880e+0, 3.836e-8
5.910e+0, 3.869e-8
5.940e+0, 3.906e-8
5.970e+0, 3.950e-8
6.000e+0, 3.943e-8
6.030e+0, 3.939e-8
6.060e+0, 3.923e-8
6.090e+0, 3.925e-8
6.120e+0, 3.913e-8
6.150e+0, 3.914e-8
6.180e+0, 3.902e-8
6.210e+0, 3.909e-8
6.240e+0, 3.898e-8
6.270e+0, 3.893e-8
6.300e+0, 3.895e-8
6.330e+0, 3.906e-8
6.360e+0, 3.887e-8
6.390e+0, 3.892e-8
6.420e+0, 3.882e-8
6.450e+0, 3.881e-8
6.480e+0, 3.848e-8
6.510e+0, 3.780e-8
6.540e+0, 3.733e-8
6.570e+0, 3.753e-8
6.600e+0, 3.773e-8
6.630e+0, 3.621e-8
6.660e+0, 3.855e-8
6.690e+0, 3.878e-8
6.720e+0, 3.901e-8
6.750e+0, 3.922e-8
6.780e+0, 3.899e-8
6.810e+0, 3.891e-8
6.840e+0, 3.878e-8
6.870e+0, 3.905e-8
6.900e+0, 3.863e-8
6.930e+0, 3.853e-8
6.960e+0, 3.845e-8
6.990e+0, 3.860e-8
7.020e+0, 3.842e-8
7.050e+0, 3.852e-8
7.080e+0, 3.850e-8
7.110e+0, 3.837e-8
7.140e+0, 3.803e-8
7.170e+0, 3.753e-8
7.200e+0, 3.747e-8
7.230e+0, 3.725e-8
7.260e+0, 3.695e-8
7.290e+0, 3.775e-8
7.320e+0, 3.738e-8
7.350e+0, 3.772e-8
7.380e+0, 3.767e-8
7.410e+0, 3.509e-8
7.440e+0, 3.743e-8
7.470e+0, 3.916e-8
7.500e+0, 3.906e-8
7.530e+0, 3.840e-8
7.560e+0, 3.865e-8
7.590e+0, 3.939e-8
7.620e+0, 3.930e-8
7.650e+0, 3.924e-8
7.680e+0, 3.903e-8
7.710e+0, 3.909e-8
7.740e+0, 3.874e-8
7.770e+0, 3.862e-8
7.800e+0, 3.885e-8
7.830e+0, 3.895e-8
7.860e+0, 3.882e-8
7.890e+0, 3.891e-8
7.920e+0, 3.880e-8
7.950e+0, 3.891e-8
7.980e+0, 3.589e-8
8.010e+0, 3.937e-8
8.040e+0, 3.891e-8
8.070e+0, 3.822e-8
8.100e+0, 3.887e-8
8.130e+0, 3.880e-8
8.160e+0, 3.881e-8
8.190e+0, 3.781e-8
8.220e+0, 3.682e-8
8.250e+0, 3.783e-8
8.280e+0, 3.829e-8
8.310e+0, 3.853e-8
8.340e+0, 3.919e-8
8.370e+0, 3.904e-8
8.400e+0, 3.884e-8
8.430e+0, 3.893e-8
8.460e+0, 3.858e-8
8.490e+0, 3.856e-8
8.520e+0, 3.834e-8
8.550e+0, 3.852e-8
8.580e+0, 3.872e-8
8.610e+0, 3.881e-8
8.640e+0, 3.864e-8
8.670e+0, 3.870e-8
8.700e+0, 3.861e-8
8.730e+0, 3.871e-8
8.760e+0, 3.864e-8
8.790e+0, 3.868e-8
8.820e+0, 3.859e-8
8.850e+0, 3.865e-8
8.880e+0, 3.860e-8
8.910e+0, 3.880e-8
8.940e+0, 3.860e-8
8.970e+0, 3.747e-8
9.000e+0, 3.579e-8
9.030e+0, 3.726e-8
9.060e+0, 3.799e-8
9.090e+0, 3.921e-8
9.120e+0, 3.890e-8
9.150e+0, 3.880e-8
9.180e+0, 3.858e-8
9.210e+0, 3.859e-8
9.240e+0, 3.835e-8
9.270e+0, 3.805e-8
9.300e+0, 3.787e-8
9.330e+0, 3.818e-8
9.360e+0, 3.815e-8
9.390e+0, 3.823e-8
9.420e+0, 3.819e-8
9.450e+0, 3.826e-8
9.480e+0, 3.816e-8
9.510e+0, 3.818e-8
9.540e+0, 3.814e-8
9.570e+0, 3.820e-8
9.600e+0, 3.812e-8
9.630e+0, 3.827e-8
9.660e+0, 3.821e-8
9.690e+0, 3.834e-8
9.720e+0, 3.798e-8
9.750e+0, 3.648e-8
9.780e+0, 3.758e-8
9.810e+0, 3.795e-8
9.840e+0, 3.791e-8
9.870e+0, 3.811e-8
9.900e+0, 3.795e-8
9.930e+0, 3.801e-8
9.960e+0, 3.813e-8
9.990e+0, 3.828e-8
1.002e+1, 3.801e-8
1.005e+1, 3.782e-8
1.008e+1, 3.783e-8
1.011e+1, 3.798e-8
1.014e+1, 3.820e-8
1.017e+1, 3.815e-8
1.020e+1, 3.810e-8
1.023e+1, 3.806e-8
1.026e+1, 3.803e-8
1.029e+1, 3.805e-8
1.032e+1, 3.792e-8
1.035e+1, 3.801e-8
1.038e+1, 3.792e-8
1.041e+1, 3.802e-8
1.044e+1, 3.802e-8
1.047e+1, 3.809e-8
1.050e+1, 3.790e-8
1.053e+1, 3.736e-8
1.056e+1, 3.717e-8
1.059e+1, 3.755e-8
1.062e+1, 3.753e-8
1.065e+1, 3.762e-8
1.068e+1, 3.756e-8
1.071e+1, 3.762e-8
1.074e+1, 3.760e-8
1.077e+1, 3.766e-8
1.080e+1, 3.730e-8
1.083e+1, 3.737e-8
1.086e+1, 3.724e-8
1.089e+1, 3.734e-8
1.092e+1, 3.729e-8
1.095e+1, 3.746e-8
1.098e+1, 3.743e-8
1.101e+1, 3.752e-8
1.104e+1, 3.741e-8
1.107e+1, 3.747e-8
1.110e+1, 3.748e-8
1.113e+1, 3.763e-8
1.116e+1, 3.757e-8
1.119e+1, 3.762e-8
1.122e+1, 3.767e-8
1.125e+1, 3.776e-8
1.128e+1, 3.754e-8
1.131e+1, 3.717e-8
1.134e+1, 3.469e-8
1.137e+1, 3.836e-8
1.140e+1, 3.809e-8
1.143e+1, 3.787e-8
1.146e+1, 3.774e-8
1.149e+1, 3.779e-8
1.152e+1, 3.760e-8
1.155e+1, 3.754e-8
1.158e+1, 3.750e-8
1.161e+1, 3.750e-8
1.164e+1, 3.741e-8
1.167e+1, 3.748e-8
1.170e+1, 3.745e-8
1.173e+1, 3.750e-8
1.176e+1, 3.749e-8
1.179e+1, 3.745e-8
1.182e+1, 3.757e-8
1.185e+1, 3.767e-8
1.188e+1, 3.754e-8
1.191e+1, 3.754e-8
1.194e+1, 3.753e-8
1.197e+1, 3.766e-8
1.200e+1, 3.726e-8
1.203e+1, 3.694e-8
1.206e+1, 3.743e-8
1.209e+1, 3.765e-8
1.212e+1, 3.746e-8
1.215e+1, 3.794e-8
1.218e+1, 3.781e-8
1.221e+1, 3.810e-8
1.224e+1, 3.793e-8
1.227e+1, 3.796e-8
1.230e+1, 3.778e-8
1.233e+1, 3.776e-8
1.236e+1, 3.751e-8
1.239e+1, 3.748e-8
1.242e+1, 3.736e-8
1.245e+1, 3.751e-8
1.248e+1, 3.749e-8
1.251e+1, 3.744e-8
1.254e+1, 3.735e-8
1.257e+1, 3.745e-8
1.260e+1, 3.733e-8
1.263e+1, 3.735e-8
1.266e+1, 3.739e-8
1.269e+1, 3.751e-8
1.272e+1, 3.741e-8
1.275e+1, 3.741e-8
1.278e+1, 3.729e-8
1.281e+1, 3.735e-8
1.284e+1, 3.672e-8
1.287e+1, 3.708e-8
1.290e+1, 3.706e-8
1.293e+1, 3.727e-8
1.296e+1, 3.729e-8
1.299e+1, 3.735e-8
1.302e+1, 3.727e-8
1.305e+1, 3.737e-8
1.308e+1, 3.726e-8
1.311e+1, 3.734e-8
1.314e+1, 3.726e-8
1.317e+1, 3.731e-8
1.320e+1, 3.729e-8
1.323e+1, 3.724e-8
1.326e+1, 3.711e-8
1.329e+1, 3.715e-8
1.332e+1, 3.707e-8
1.335e+1, 3.712e-8
1.338e+1, 3.704e-8
1.341e+1, 3.715e-8
1.344e+1, 3.704e-8
1.347e+1, 3.711e-8
1.350e+1, 3.705e-8
1.353e+1, 3.709e-8
1.356e+1, 3.699e-8
1.359e+1, 3.711e-8
1.362e+1, 3.551e-8
1.365e+1, 3.766e-8
1.368e+1, 3.815e-8
1.371e+1, 3.782e-8
1.374e+1, 3.765e-8
1.377e+1, 3.756e-8
1.380e+1, 3.748e-8
1.383e+1, 3.750e-8
1.386e+1, 3.724e-8
1.389e+1, 3.731e-8
1.392e+1, 3.717e-8
1.395e+1, 3.719e-8
1.398e+1, 3.704e-8
1.401e+1, 3.704e-8
1.404e+1, 3.691e-8
1.407e+1, 3.698e-8
1.410e+1, 3.695e-8
1.413e+1, 3.701e-8
1.416e+1, 3.699e-8
1.419e+1, 3.707e-8
1.422e+1, 3.697e-8
1.425e+1, 3.708e-8
1.428e+1, 3.715e-8
1.431e+1, 3.714e-8
1.434e+1, 3.699e-8
1.437e+1, 3.595e-8
1.440e+1, 3.788e-8
1.443e+1, 3.788e-8
1.446e+1, 3.763e-8
1.449e+1, 3.759e-8
1.452e+1, 3.745e-8
1.455e+1, 3.746e-8
1.458e+1, 3.729e-8
1.461e+1, 3.727e-8
1.464e+1, 3.726e-8
1.467e+1, 3.725e-8
1.470e+1, 3.720e-8
1.473e+1, 3.730e-8
1.476e+1, 3.725e-8
1.479e+1, 3.731e-8
1.482e+1, 3.723e-8
1.485e+1, 3.731e-8
1.488e+1, 3.711e-8
1.491e+1, 3.729e-8
1.494e+1, 3.720e-8
1.497e+1, 3.729e-8
1.500e+1, 3.728e-8
1.503e+1, 3.747e-8
1.506e+1, 3.755e-8
1.509e+1, 3.749e-8
1.512e+1, 3.766e-8
1.515e+1, 3.810e-8
1.518e+1, 3.803e-8
1.521e+1, 3.808e-8
1.524e+1, 3.785e-8
1.527e+1, 3.775e-8
1.530e+1, 3.764e-8
1.533e+1, 3.770e-8
1.536e+1, 3.765e-8
1.539e+1, 3.765e-8
1.542e+1, 3.748e-8
1.545e+1, 3.748e-8
1.548e+1, 3.740e-8
1.551e+1, 3.744e-8
1.554e+1, 3.738e-8
1.557e+1, 3.744e-8
1.560e+1, 3.722e-8
1.563e+1, 3.726e-8
1.566e+1, 3.723e-8
1.569e+1, 3.736e-8
1.572e+1, 3.733e-8
1.575e+1, 3.743e-8
1.578e+1, 3.754e-8
1.581e+1, 3.761e-8
1.584e+1, 3.770e-8
1.587e+1, 3.780e-8
1.590e+1, 3.764e-8
1.593e+1, 3.785e-8
1.596e+1, 3.775e-8
1.599e+1, 3.793e-8
1.602e+1, 3.806e-8
1.605e+1, 3.819e-8
1.608e+1, 3.808e-8
1.611e+1, 3.811e-8
1.614e+1, 3.794e-8
1.617e+1, 3.793e-8
1.620e+1, 3.782e-8
1.623e+1, 3.786e-8
1.626e+1, 3.772e-8
1.629e+1, 3.779e-8
1.632e+1, 3.768e-8
1.635e+1, 3.763e-8
1.638e+1, 3.762e-8
1.641e+1, 3.737e-8
1.644e+1, 3.759e-8
1.647e+1, 3.783e-8
1.650e+1, 3.755e-8
1.653e+1, 3.751e-8
1.656e+1, 3.783e-8
1.659e+1, 3.786e-8
1.662e+1, 3.779e-8
1.665e+1, 3.792e-8
1.668e+1, 3.798e-8
1.671e+1, 3.808e-8
1.674e+1, 3.803e-8
1.677e+1, 3.683e-8
1.680e+1, 3.819e-8
1.683e+1, 3.773e-8
1.686e+1, 3.759e-8
1.689e+1, 3.870e-8
1.692e+1, 3.843e-8
1.695e+1, 3.834e-8
1.698e+1, 3.826e-8
1.701e+1, 3.815e-8
1.704e+1, 3.811e-8
1.707e+1, 3.815e-8
1.710e+1, 3.807e-8
1.713e+1, 3.806e-8
1.716e+1, 3.802e-8
1.719e+1, 3.801e-8
1.722e+1, 3.796e-8
1.725e+1, 3.798e-8
1.728e+1, 3.804e-8
1.731e+1, 3.811e-8
1.734e+1, 3.804e-8
1.737e+1, 3.818e-8
1.740e+1, 3.809e-8
1.743e+1, 3.821e-8
1.746e+1, 3.827e-8
1.749e+1, 3.828e-8
1.752e+1, 3.821e-8
1.755e+1, 3.818e-8
1.758e+1, 3.730e-8
1.761e+1, 3.821e-8
1.764e+1, 3.844e-8
1.767e+1, 3.783e-8
1.770e+1, 3.835e-8
1.773e+1, 3.824e-8
1.776e+1, 3.817e-8
1.779e+1, 3.816e-8
1.782e+1, 3.803e-8
1.785e+1, 3.809e-8
1.788e+1, 3.816e-8
1.791e+1, 3.827e-8
1.794e+1, 3.826e-8
1.797e+1, 3.817e-8
1.800e+1, 3.819e-8
1.803e+1, 3.824e-8
1.806e+1, 3.804e-8
1.809e+1, 3.808e-8
1.812e+1, 3.814e-8
1.815e+1, 3.809e-8
1.818e+1, 3.595e-8
1.821e+1, 3.516e-8
1.824e+1, 3.866e-8
1.827e+1, 3.818e-8
1.830e+1, 3.827e-8
1.833e+1, 3.857e-8
1.836e+1, 3.770e-8
1.839e+1, 3.821e-8
1.842e+1, 3.974e-8
1.845e+1, 3.923e-8
1.848e+1, 3.904e-8
1.851e+1, 3.881e-8
1.854e+1, 3.843e-8
1.857e+1, 3.816e-8
1.860e+1, 3.816e-8
1.863e+1, 3.839e-8
1.866e+1, 3.824e-8
1.869e+1, 3.824e-8
1.872e+1, 3.801e-8
1.875e+1, 3.793e-8
1.878e+1, 3.788e-8
1.881e+1, 3.791e-8
1.884e+1, 3.798e-8
1.887e+1, 3.811e-8
1.890e+1, 3.807e-8
1.893e+1, 3.826e-8
1.896e+1, 3.873e-8
1.899e+1, 3.827e-8
1.902e+1, 3.518e-8
1.905e+1, 2.682e-8
1.908e+1, 4.096e-8
1.911e+1, 3.862e-8
1.914e+1, 3.910e-8
1.917e+1, 3.961e-8
1.920e+1, 3.765e-8
1.923e+1, 3.873e-8
1.926e+1, 3.772e-8
1.929e+1, 3.861e-8
1.932e+1, 3.733e-8
1.935e+1, 3.807e-8
1.938e+1, 3.874e-8
1.941e+1, 3.855e-8
1.944e+1, 3.834e-8
1.947e+1, 3.790e-8
1.950e+1, 3.814e-8
1.953e+1, 3.799e-8
1.956e+1, 3.796e-8
1.959e+1, 3.792e-8
1.962e+1, 3.788e-8
1.965e+1, 3.788e-8
1.968e+1, 3.776e-8
1.971e+1, 3.774e-8
1.974e+1, 3.773e-8
1.977e+1, 3.772e-8
1.980e+1, 3.769e-8
1.983e+1, 3.774e-8
1.986e+1, 3.661e-8
1.989e+1, 3.660e-8
1.992e+1, 3.715e-8
1.995e+1, 3.894e-8
1.998e+1, 3.775e-8
2.001e+1, 3.681e-8
2.004e+1, 3.709e-8
2.007e+1, 3.823e-8
2.010e+1, 3.724e-8
2.013e+1, 3.814e-8
2.016e+1, 3.784e-8
2.019e+1, 3.776e-8
2.022e+1, 3.711e-8
2.025e+1, 3.693e-8
2.028e+1, 3.775e-8
2.031e+1, 3.722e-8
2.034e+1, 3.652e-8
2.037e+1, 3.707e-8
2.040e+1, 3.740e-8
2.043e+1, 3.764e-8
2.046e+1, 3.759e-8
2.049e+1, 3.752e-8
2.052e+1, 3.749e-8
2.055e+1, 3.747e-8
2.058e+1, 3.743e-8
2.061e+1, 3.710e-8
2.064e+1, 3.555e-8
2.067e+1, 3.698e-8
2.070e+1, 3.760e-8
2.073e+1, 3.790e-8
2.076e+1, 3.798e-8
2.079e+1, 3.658e-8
2.082e+1, 3.748e-8
2.085e+1, 3.742e-8
2.088e+1, 3.761e-8
2.091e+1, 3.761e-8
2.094e+1, 3.754e-8
2.097e+1, 3.743e-8
2.100e+1, 3.742e-8
2.103e+1, 3.750e-8
2.106e+1, 3.710e-8
2.109e+1, 3.706e-8
2.112e+1, 3.704e-8
2.115e+1, 3.727e-8
2.118e+1, 3.717e-8
2.121e+1, 3.711e-8
2.124e+1, 3.702e-8
2.127e+1, 3.699e-8
2.130e+1, 3.737e-8
2.133e+1, 3.744e-8
2.136e+1, 3.741e-8
2.139e+1, 3.616e-8
2.142e+1, 3.419e-8
2.145e+1, 3.602e-8
2.148e+1, 3.675e-8
2.151e+1, 3.628e-8
2.154e+1, 3.778e-8
2.157e+1, 3.759e-8
2.160e+1, 3.705e-8
2.163e+1, 3.707e-8
2.166e+1, 3.728e-8
2.169e+1, 3.680e-8
2.172e+1, 3.771e-8
2.175e+1, 3.741e-8
2.178e+1, 3.734e-8
2.181e+1, 3.732e-8
2.184e+1, 3.719e-8
2.187e+1, 3.715e-8
2.190e+1, 3.716e-8
2.193e+1, 3.719e-8
2.196e+1, 3.710e-8
2.199e+1, 3.713e-8
2.202e+1, 3.717e-8
2.205e+1, 3.494e-8
2.208e+1, 3.692e-8
2.211e+1, 3.677e-8
2.214e+1, 3.519e-8
2.217e+1, 3.724e-8
2.220e+1, 3.659e-8
2.223e+1, 3.753e-8
2.226e+1, 3.751e-8
2.229e+1, 3.745e-8
2.232e+1, 3.738e-8
2.235e+1, 3.724e-8
2.238e+1, 3.720e-8
2.241e+1, 3.711e-8
2.244e+1, 3.700e-8
2.247e+1, 3.712e-8
2.250e+1, 3.714e-8
2.253e+1, 3.705e-8
2.256e+1, 3.691e-8
2.259e+1, 3.698e-8
2.262e+1, 3.702e-8
2.265e+1, 3.696e-8
2.268e+1, 3.697e-8
2.271e+1, 3.690e-8
2.274e+1, 3.693e-8
2.277e+1, 3.689e-8
2.280e+1, 3.689e-8
2.283e+1, 3.680e-8
2.286e+1, 3.676e-8
2.289e+1, 3.679e-8
2.292e+1, 3.677e-8
2.295e+1, 3.679e-8
2.298e+1, 3.674e-8
2.301e+1, 3.532e-8
2.304e+1, 3.726e-8
2.307e+1, 3.708e-8
2.310e+1, 3.700e-8
2.313e+1, 3.689e-8
2.316e+1, 3.684e-8
2.319e+1, 3.681e-8
2.322e+1, 3.678e-8
2.325e+1, 3.679e-8
2.328e+1, 3.671e-8
2.331e+1, 3.671e-8
2.334e+1, 3.668e-8
2.337e+1, 3.666e-8
2.340e+1, 3.675e-8
2.343e+1, 3.670e-8
2.346e+1, 3.645e-8
2.349e+1, 3.670e-8
2.352e+1, 3.663e-8
2.355e+1, 3.670e-8
2.358e+1, 3.657e-8
2.361e+1, 3.661e-8
2.364e+1, 3.671e-8
2.367e+1, 3.675e-8
2.370e+1, 3.679e-8
2.373e+1, 3.670e-8
2.376e+1, 3.581e-8
2.379e+1, 3.625e-8
2.382e+1, 3.724e-8
2.385e+1, 3.716e-8
2.388e+1, 3.712e-8
2.391e+1, 3.706e-8
2.394e+1, 3.714e-8
2.397e+1, 3.713e-8
2.400e+1, 3.715e-8
2.403e+1, 3.714e-8
2.406e+1, 3.710e-8
2.409e+1, 3.710e-8
2.412e+1, 3.707e-8
2.415e+1, 3.711e-8
2.418e+1, 3.695e-8
2.421e+1, 3.696e-8
2.424e+1, 3.699e-8
2.427e+1, 3.700e-8
2.430e+1, 3.697e-8
2.433e+1, 3.703e-8
2.436e+1, 3.696e-8
2.439e+1, 3.694e-8
2.442e+1, 3.697e-8
2.445e+1, 3.692e-8
2.448e+1, 3.614e-8
2.451e+1, 3.530e-8
2.454e+1, 3.740e-8
2.457e+1, 3.735e-8
2.460e+1, 3.733e-8
2.463e+1, 3.722e-8
2.466e+1, 3.714e-8
2.469e+1, 3.709e-8
2.472e+1, 3.713e-8
2.475e+1, 3.722e-8
2.478e+1, 3.727e-8
2.481e+1, 3.726e-8
2.484e+1, 3.729e-8
2.487e+1, 3.731e-8
2.490e+1, 3.729e-8
2.493e+1, 3.724e-8
2.496e+1, 3.729e-8
2.499e+1, 3.710e-8
2.502e+1, 3.715e-8
2.505e+1, 3.715e-8
2.508e+1, 3.716e-8
2.511e+1, 3.714e-8
2.514e+1, 3.709e-8
2.517e+1, 3.706e-8
2.520e+1, 3.713e-8
2.523e+1, 3.708e-8
2.526e+1, 3.713e-8
2.529e+1, 3.733e-8
2.532e+1, 3.808e-8
2.535e+1, 3.798e-8
2.538e+1, 3.788e-8
2.541e+1, 3.775e-8
2.544e+1, 3.778e-8
2.547e+1, 3.761e-8
2.550e+1, 3.752e-8
2.553e+1, 3.756e-8
2.556e+1, 3.763e-8
2.559e+1, 3.755e-8
2.562e+1, 3.754e-8
2.565e+1, 3.742e-8
2.568e+1, 3.745e-8
2.571e+1, 3.740e-8
2.574e+1, 3.738e-8
2.577e+1, 3.722e-8
2.580e+1, 3.732e-8
2.583e+1, 3.727e-8
2.586e+1, 3.734e-8
2.589e+1, 3.742e-8
2.592e+1, 3.732e-8
2.595e+1, 3.721e-8
2.598e+1, 3.694e-8
2.601e+1, 3.302e-8
2.604e+1, 3.021e-8
2.607e+1, 3.842e-8
2.610e+1, 3.777e-8
2.613e+1, 3.735e-8
2.616e+1, 3.733e-8
2.619e+1, 3.753e-8
2.622e+1, 3.754e-8
2.625e+1, 3.741e-8
2.628e+1, 3.740e-8
2.631e+1, 3.734e-8
2.634e+1, 3.734e-8
2.637e+1, 3.741e-8
2.640e+1, 3.719e-8
2.643e+1, 3.739e-8
2.646e+1, 3.733e-8
2.649e+1, 3.737e-8
2.652e+1, 3.738e-8
2.655e+1, 3.731e-8
2.658e+1, 3.735e-8
2.661e+1, 3.728e-8
2.664e+1, 3.735e-8
2.667e+1, 3.706e-8
2.670e+1, 3.682e-8
2.673e+1, 3.633e-8
2.676e+1, 1.894e-8
2.679e+1, 3.521e-8
2.682e+1, 3.736e-8
2.685e+1, 3.659e-8
2.688e+1, 3.641e-8
2.691e+1, 3.652e-8
2.694e+1, 3.867e-8
2.697e+1, 3.768e-8
2.700e+1, 3.751e-8
2.703e+1, 3.736e-8
2.706e+1, 3.742e-8
2.709e+1, 3.718e-8
2.712e+1, 3.724e-8
2.715e+1, 3.716e-8
2.718e+1, 3.710e-8
2.721e+1, 3.734e-8
2.724e+1, 3.745e-8
2.727e+1, 3.732e-8
2.730e+1, 3.731e-8
2.733e+1, 3.731e-8
2.736e+1, 3.725e-8
2.739e+1, 3.729e-8
2.742e+1, 3.710e-8
2.745e+1, 3.721e-8
2.748e+1, 3.534e-8
2.751e+1, 1.912e-8
2.754e+1, 2.172e-8
2.757e+1, 2.812e-8
2.760e+1, 4.034e-8
2.763e+1, 3.866e-8
2.766e+1, 3.801e-8
2.769e+1, 3.767e-8
2.772e+1, 3.758e-8
2.775e+1, 3.744e-8
2.778e+1, 3.728e-8
2.781e+1, 3.712e-8
2.784e+1, 3.674e-8
2.787e+1, 3.690e-8
2.790e+1, 3.752e-8
2.793e+1, 3.721e-8
2.796e+1, 3.720e-8
2.799e+1, 3.715e-8
2.802e+1, 3.708e-8
2.805e+1, 3.690e-8
2.808e+1, 3.722e-8
2.811e+1, 3.711e-8
2.814e+1, 3.722e-8
2.817e+1, 3.710e-8
2.820e+1, 3.711e-8
2.823e+1, 3.701e-8
2.826e+1, 3.415e-8
2.829e+1, 3.140e-8
2.832e+1, 2.354e-8
2.835e+1, 3.876e-8
2.838e+1, 3.931e-8
2.841e+1, 3.834e-8
2.844e+1, 3.804e-8
2.847e+1, 3.784e-8
2.850e+1, 3.766e-8
2.853e+1, 3.755e-8
2.856e+1, 3.750e-8
2.859e+1, 3.731e-8
2.862e+1, 3.733e-8
2.865e+1, 3.736e-8
2.868e+1, 3.732e-8
2.871e+1, 3.726e-8
2.874e+1, 3.714e-8
2.877e+1, 3.695e-8
2.880e+1, 3.700e-8
2.883e+1, 3.705e-8
2.886e+1, 3.717e-8
2.889e+1, 3.715e-8
2.892e+1, 3.726e-8
2.895e+1, 3.718e-8
2.898e+1, 3.722e-8
2.901e+1, 3.620e-8
2.904e+1, 2.594e-8
2.907e+1, 2.310e-8
2.910e+1, 4.015e-8
2.913e+1, 3.920e-8
2.916e+1, 3.843e-8
2.919e+1, 3.805e-8
2.922e+1, 3.788e-8
2.925e+1, 3.762e-8
2.928e+1, 3.754e-8
2.931e+1, 3.745e-8
2.934e+1, 3.737e-8
2.937e+1, 3.731e-8
2.940e+1, 3.741e-8
2.943e+1, 3.733e-8
2.946e+1, 3.730e-8
2.949e+1, 3.733e-8
2.952e+1, 3.730e-8
2.955e+1, 3.724e-8
2.958e+1, 3.725e-8
2.961e+1, 3.721e-8
2.964e+1, 3.726e-8
2.967e+1, 3.724e-8
2.970e+1, 3.715e-8
2.973e+1, 3.555e-8
2.976e+1, 2.433e-8
2.979e+1, 2.883e-8
2.982e+1, 3.659e-8
2.985e+1, 3.680e-8
2.988e+1, 3.793e-8
2.991e+1, 3.613e-8
2.994e+1, 3.469e-8
2.997e+1, 3.842e-8
3.000e+1, 3.815e-8
3.003e+1, 3.802e-8
3.006e+1, 3.785e-8
3.009e+1, 3.772e-8
3.012e+1, 3.763e-8
3.015e+1, 3.758e-8
3.018e+1, 3.742e-8
3.021e+1, 3.719e-8
3.024e+1, 3.750e-8
3.027e+1, 3.651e-8
3.030e+1, 3.549e-8
3.033e+1, 3.553e-8
3.036e+1, 3.800e-8
3.039e+1, 3.757e-8
3.042e+1, 3.741e-8
3.045e+1, 3.730e-8
3.048e+1, 3.728e-8
3.051e+1, 1.994e-8
3.054e+1, 1.990e-8
3.057e+1, 4.039e-8
3.060e+1, 3.744e-8
3.063e+1, 3.709e-8
3.066e+1, 3.817e-8
3.069e+1, 3.715e-8
3.072e+1, 3.649e-8
3.075e+1, 3.716e-8
3.078e+1, 3.608e-8
3.081e+1, 3.708e-8
3.084e+1, 3.714e-8
3.087e+1, 3.621e-8
3.090e+1, 3.813e-8
3.093e+1, 3.253e-8
3.096e+1, 2.928e-8
3.099e+1, 3.851e-8
3.102e+1, 3.848e-8
3.105e+1, 3.785e-8
3.108e+1, 3.765e-8
3.111e+1, 3.745e-8
3.114e+1, 3.747e-8
3.117e+1, 3.733e-8
3.120e+1, 3.739e-8
3.123e+1, 3.729e-8
3.126e+1, 3.748e-8
3.129e+1, 2.359e-8
3.132e+1, 1.840e-8
3.135e+1, 3.821e-8
3.138e+1, 3.559e-8
3.141e+1, 3.905e-8
3.144e+1, 3.805e-8
3.147e+1, 3.753e-8
3.150e+1, 3.754e-8
3.153e+1, 3.694e-8
3.156e+1, 3.660e-8
3.159e+1, 3.641e-8
3.162e+1, 3.634e-8
3.165e+1, 3.659e-8
3.168e+1, 3.664e-8
3.171e+1, 3.619e-8
3.174e+1, 3.619e-8
3.177e+1, 3.671e-8
3.180e+1, 3.690e-8
3.183e+1, 3.676e-8
3.186e+1, 3.216e-8
3.189e+1, 3.402e-8
3.192e+1, 3.553e-8
3.195e+1, 3.660e-8
3.198e+1, 3.737e-8
3.201e+1, 3.712e-8
3.204e+1, 3.664e-8
3.207e+1, 2.568e-8
3.210e+1, 3.704e-8
3.213e+1, 3.475e-8
3.216e+1, 3.902e-8
3.219e+1, 3.719e-8
3.222e+1, 3.678e-8
3.225e+1, 3.747e-8
3.228e+1, 3.742e-8
3.231e+1, 3.734e-8
3.234e+1, 3.655e-8
3.237e+1, 3.611e-8
3.240e+1, 3.638e-8
3.243e+1, 3.718e-8
3.246e+1, 3.713e-8
3.249e+1, 3.667e-8
3.252e+1, 3.675e-8
3.255e+1, 3.654e-8
3.258e+1, 3.622e-8
3.261e+1, 3.662e-8
3.264e+1, 3.676e-8
3.267e+1, 3.646e-8
3.270e+1, 3.676e-8
3.273e+1, 3.659e-8
3.276e+1, 3.674e-8
3.279e+1, 3.653e-8
3.282e+1, 3.597e-8
3.285e+1, 3.513e-8
3.288e+1, 3.726e-8
3.291e+1, 3.626e-8
3.294e+1, 3.644e-8
3.297e+1, 3.646e-8
3.300e+1, 3.640e-8
3.303e+1, 3.627e-8
3.306e+1, 3.639e-8
3.309e+1, 3.629e-8
3.312e+1, 3.625e-8
3.315e+1, 3.633e-8
3.318e+1, 3.655e-8
3.321e+1, 3.669e-8
3.324e+1, 3.669e-8
3.327e+1, 3.637e-8
3.330e+1, 3.743e-8
3.333e+1, 3.647e-8
3.336e+1, 3.658e-8
3.339e+1, 3.661e-8
3.342e+1, 3.658e-8
3.345e+1, 3.655e-8
3.348e+1, 3.656e-8
3.351e+1, 3.572e-8
3.354e+1, 2.583e-8
3.357e+1, 3.702e-8
3.360e+1, 3.600e-8
3.363e+1, 3.475e-8
3.366e+1, 3.189e-8
3.369e+1, 2.963e-8
3.372e+1, 3.930e-8
3.375e+1, 3.747e-8
3.378e+1, 3.725e-8
3.381e+1, 3.680e-8
3.384e+1, 3.685e-8
3.387e+1, 3.672e-8
3.390e+1, 3.652e-8
3.393e+1, 3.655e-8
3.396e+1, 3.654e-8
3.399e+1, 3.644e-8
3.402e+1, 3.555e-8
3.405e+1, 3.371e-8
3.408e+1, 3.726e-8
3.411e+1, 3.675e-8
3.414e+1, 3.671e-8
3.417e+1, 3.645e-8
3.420e+1, 3.646e-8
3.423e+1, 3.560e-8
3.426e+1, 2.740e-8
3.429e+1, 1.739e-8
3.432e+1, 3.676e-8
3.435e+1, 3.643e-8
3.438e+1, 3.918e-8
3.441e+1, 3.798e-8
3.444e+1, 3.768e-8
3.447e+1, 3.730e-8
3.450e+1, 3.730e-8
3.453e+1, 3.114e-8
3.456e+1, 2.646e-8
3.459e+1, 3.616e-8
3.462e+1, 3.905e-8
3.465e+1, 3.781e-8
3.468e+1, 3.736e-8
3.471e+1, 3.708e-8
3.474e+1, 3.704e-8
3.477e+1, 3.672e-8
3.480e+1, 3.679e-8
3.483e+1, 3.685e-8
3.486e+1, 3.678e-8
3.489e+1, 3.274e-8
3.492e+1, 3.468e-8
3.495e+1, 3.700e-8
3.498e+1, 3.588e-8
3.501e+1, 1.565e-8
3.504e+1, 3.088e-8
3.507e+1, 2.460e-8
3.510e+1, 3.432e-8
3.513e+1, 3.357e-8
3.516e+1, 2.566e-8
3.519e+1, 3.470e-8
3.522e+1, 3.553e-8
3.525e+1, 3.704e-8
3.528e+1, 3.820e-8
3.531e+1, 3.721e-8
3.534e+1, 3.772e-8
3.537e+1, 3.674e-8
3.540e+1, 3.540e-8
3.543e+1, 3.572e-8
3.546e+1, 3.518e-8
3.549e+1, 3.367e-8
3.552e+1, 3.447e-8
3.555e+1, 3.678e-8
3.558e+1, 3.017e-8
3.561e+1, 2.792e-8
3.564e+1, 4.072e-8
3.567e+1, 3.696e-8
3.570e+1, 2.635e-8
3.573e+1, 3.786e-8
3.576e+1, 3.761e-8
3.579e+1, 3.352e-8
3.582e+1, 2.256e-8
3.585e+1, 3.656e-8
3.588e+1, 3.565e-8
3.591e+1, 2.615e-8
3.594e+1, 2.549e-8
3.597e+1, 2.702e-8
3.600e+1, 4.318e-8
3.603e+1, 4.026e-8
3.606e+1, 3.909e-8
3.609e+1, 3.807e-8
3.612e+1, 3.573e-8
3.615e+1, 3.480e-8
3.618e+1, 3.252e-8
3.621e+1, 3.709e-8
3.624e+1, 3.049e-8
3.627e+1, 3.781e-8
3.630e+1, 3.261e-8
3.633e+1, 3.502e-8
3.636e+1, 3.946e-8
3.639e+1, 3.510e-8
3.642e+1, 3.484e-8
3.645e+1, 3.767e-8
3.648e+1, 3.577e-8
3.651e+1, 3.760e-8
3.654e+1, 3.335e-8
3.657e+1, 3.560e-8
3.660e+1, 3.652e-8
3.663e+1, 3.757e-8
3.666e+1, 3.706e-8
3.669e+1, 3.747e-8
3.672e+1, 3.715e-8
3.675e+1, 3.734e-8
3.678e+1, 3.509e-8
3.681e+1, 3.091e-8
3.684e+1, 3.749e-8
3.687e+1, 3.587e-8
3.690e+1, 3.199e-8
3.693e+1, 3.881e-8
3.696e+1, 2.451e-8
3.699e+1, 3.954e-8
3.702e+1, 3.845e-8
3.705e+1, 3.792e-8
3.708e+1, 3.825e-8
3.711e+1, 3.822e-8
3.714e+1, 2.912e-8
3.717e+1, 2.418e-8
3.720e+1, 4.029e-8
3.723e+1, 3.581e-8
3.726e+1, 3.927e-8
3.729e+1, 3.818e-8
3.732e+1, 3.788e-8
3.735e+1, 3.767e-8
3.738e+1, 3.766e-8
3.741e+1, 3.731e-8
3.744e+1, 3.730e-8
3.747e+1, 3.726e-8
3.750e+1, 3.730e-8
3.753e+1, 3.717e-8
3.756e+1, 3.727e-8
3.759e+1, 3.727e-8
3.762e+1, 3.720e-8
3.765e+1, 3.706e-8
3.768e+1, 3.710e-8
3.771e+1, 3.702e-8
3.774e+1, 3.701e-8
3.777e+1, 3.700e-8
3.780e+1, 3.724e-8
3.783e+1, 3.718e-8
3.786e+1, 3.565e-8
3.789e+1, 3.478e-8
3.792e+1, 3.635e-8
3.795e+1, 2.771e-8
3.798e+1, 2.986e-8
3.801e+1, 2.989e-8
3.804e+1, 4.165e-8
3.807e+1, 3.889e-8
3.810e+1, 3.814e-8
3.813e+1, 3.775e-8
3.816e+1, 3.770e-8
3.819e+1, 3.749e-8
3.822e+1, 3.745e-8
3.825e+1, 3.729e-8
3.828e+1, 3.737e-8
3.831e+1, 3.728e-8
3.834e+1, 3.719e-8
3.837e+1, 3.709e-8
3.840e+1, 3.722e-8
3.843e+1, 3.714e-8
3.846e+1, 3.708e-8
3.849e+1, 3.701e-8
3.852e+1, 3.699e-8
3.855e+1, 3.651e-8
3.858e+1, 3.700e-8
3.861e+1, 3.616e-8
3.864e+1, 3.702e-8
3.867e+1, 3.670e-8
3.870e+1, 1.207e-8
3.873e+1, 2.214e-8
3.876e+1, 2.783e-8
3.879e+1, 2.768e-8
3.882e+1, 2.440e-8
3.885e+1, 1.349e-8
3.888e+1, 7.519e-9
3.891e+1, 3.159e-9
3.894e+1, 2.570e-9
3.897e+1, 3.071e-9
3.900e+1, 2.013e-9
3.903e+1, 1.847e-9
3.906e+1, 1.795e-9
3.909e+1, 1.422e-9
3.912e+1, 1.011e-9
3.915e+1, 8.263e-10
3.918e+1, 9.881e-10
3.921e+1, 2.176e-9
3.924e+1, 1.879e-8
3.927e+1, 4.426e-8
3.930e+1, 3.722e-8
3.933e+1, 3.351e-8
3.936e+1, 1.525e-8
3.939e+1, 1.750e-9
3.942e+1, 9.826e-10
