July 4, 2024   23:30:10
Amperometric i-t Curve
File: 0.3-0.04
Data Source:  Experiment
Instrument Model:  CHI760E
Header: 
Note: 

Init E (V) = 0.3
Sample Interval (s) = 0.04
Run Time (sec) = 4e+3
Quiet Time (sec) = 0
Sensitivity (A/V) = 1e-4

Results:

Channel 1:

Time/sec, Current/A

4.000e-2, 2.076e-5
8.000e-2, 2.153e-5
1.200e-1, 2.264e-5
1.600e-1, 2.278e-5
2.000e-1, 2.426e-5
2.400e-1, 2.492e-5
2.800e-1, 2.574e-5
3.200e-1, 2.646e-5
3.600e-1, 2.708e-5
4.000e-1, 2.747e-5
4.400e-1, 2.776e-5
4.800e-1, 2.830e-5
5.200e-1, 2.870e-5
5.600e-1, 2.917e-5
6.000e-1, 3.014e-5
6.400e-1, 3.091e-5
6.800e-1, 3.103e-5
7.200e-1, 3.122e-5
7.600e-1, 3.131e-5
8.000e-1, 3.166e-5
8.400e-1, 3.230e-5
8.800e-1, 3.319e-5
9.200e-1, 3.411e-5
9.600e-1, 3.475e-5
1.000e+0, 3.536e-5
1.040e+0, 3.604e-5
1.080e+0, 3.642e-5
1.120e+0, 3.671e-5
1.160e+0, 3.701e-5
1.200e+0, 3.734e-5
1.240e+0, 3.784e-5
1.280e+0, 3.872e-5
1.320e+0, 3.927e-5
1.360e+0, 3.961e-5
1.400e+0, 3.994e-5
1.440e+0, 3.991e-5
1.480e+0, 4.052e-5
1.520e+0, 4.094e-5
1.560e+0, 4.133e-5
1.600e+0, 4.191e-5
1.640e+0, 4.247e-5
1.680e+0, 4.286e-5
1.720e+0, 4.322e-5
1.760e+0, 4.370e-5
1.800e+0, 4.390e-5
1.840e+0, 4.409e-5
1.880e+0, 4.465e-5
1.920e+0, 4.504e-5
1.960e+0, 4.573e-5
2.000e+0, 4.606e-5
2.040e+0, 4.638e-5
2.080e+0, 4.671e-5
2.120e+0, 4.712e-5
2.160e+0, 4.681e-5
2.200e+0, 4.664e-5
2.240e+0, 4.678e-5
2.280e+0, 4.669e-5
2.320e+0, 4.699e-5
2.360e+0, 4.743e-5
2.400e+0, 4.789e-5
2.440e+0, 4.834e-5
2.480e+0, 4.868e-5
2.520e+0, 4.907e-5
2.560e+0, 4.933e-5
2.600e+0, 4.946e-5
2.640e+0, 4.986e-5
2.680e+0, 5.018e-5
2.720e+0, 5.034e-5
2.760e+0, 5.072e-5
2.800e+0, 5.105e-5
2.840e+0, 5.147e-5
2.880e+0, 5.188e-5
2.920e+0, 5.241e-5
2.960e+0, 5.194e-5
3.000e+0, 5.211e-5
3.040e+0, 5.210e-5
3.080e+0, 5.239e-5
3.120e+0, 5.283e-5
3.160e+0, 5.320e-5
3.200e+0, 5.371e-5
3.240e+0, 5.429e-5
3.280e+0, 5.464e-5
3.320e+0, 5.500e-5
3.360e+0, 5.520e-5
3.400e+0, 5.545e-5
3.440e+0, 5.576e-5
3.480e+0, 5.616e-5
3.520e+0, 5.660e-5
3.560e+0, 5.688e-5
3.600e+0, 5.704e-5
3.640e+0, 5.729e-5
3.680e+0, 5.766e-5
3.720e+0, 5.740e-5
3.760e+0, 5.711e-5
3.800e+0, 5.727e-5
3.840e+0, 5.733e-5
3.880e+0, 5.770e-5
3.920e+0, 5.806e-5
3.960e+0, 5.863e-5
4.000e+0, 5.897e-5
4.040e+0, 5.915e-5
4.080e+0, 5.948e-5
4.120e+0, 5.987e-5
4.160e+0, 6.010e-5
4.200e+0, 6.020e-5
4.240e+0, 6.037e-5
4.280e+0, 6.083e-5
4.320e+0, 6.114e-5
4.360e+0, 6.149e-5
4.400e+0, 6.166e-5
4.440e+0, 6.175e-5
4.480e+0, 6.216e-5
4.520e+0, 6.196e-5
4.560e+0, 6.167e-5
4.600e+0, 6.166e-5
4.640e+0, 6.149e-5
4.680e+0, 6.158e-5
4.720e+0, 6.197e-5
4.760e+0, 6.259e-5
4.800e+0, 6.292e-5
4.840e+0, 6.353e-5
4.880e+0, 6.375e-5
4.920e+0, 6.411e-5
4.960e+0, 6.407e-5
5.000e+0, 6.435e-5
5.040e+0, 6.466e-5
5.080e+0, 6.509e-5
5.120e+0, 6.526e-5
5.160e+0, 6.557e-5
5.200e+0, 6.583e-5
5.240e+0, 6.616e-5
5.280e+0, 6.626e-5
5.320e+0, 6.620e-5
5.360e+0, 6.559e-5
5.400e+0, 6.538e-5
5.440e+0, 6.545e-5
5.480e+0, 6.580e-5
5.520e+0, 6.580e-5
5.560e+0, 6.569e-5
5.600e+0, 6.594e-5
5.640e+0, 6.595e-5
5.680e+0, 6.563e-5
5.720e+0, 6.529e-5
5.760e+0, 6.521e-5
5.800e+0, 6.524e-5
5.840e+0, 6.567e-5
5.880e+0, 6.627e-5
5.920e+0, 6.668e-5
5.960e+0, 6.699e-5
6.000e+0, 6.768e-5
6.040e+0, 6.806e-5
6.080e+0, 6.828e-5
6.120e+0, 6.816e-5
6.160e+0, 6.822e-5
6.200e+0, 6.866e-5
6.240e+0, 6.817e-5
6.280e+0, 6.807e-5
6.320e+0, 6.847e-5
6.360e+0, 6.881e-5
6.400e+0, 6.914e-5
6.440e+0, 6.935e-5
6.480e+0, 6.947e-5
6.520e+0, 6.934e-5
6.560e+0, 6.911e-5
6.600e+0, 6.889e-5
6.640e+0, 6.914e-5
6.680e+0, 6.939e-5
6.720e+0, 6.945e-5
6.760e+0, 6.957e-5
6.800e+0, 6.971e-5
6.840e+0, 6.964e-5
6.880e+0, 6.949e-5
6.920e+0, 6.934e-5
6.960e+0, 6.924e-5
7.000e+0, 6.915e-5
7.040e+0, 6.909e-5
7.080e+0, 6.958e-5
7.120e+0, 6.997e-5
7.160e+0, 7.032e-5
7.200e+0, 7.074e-5
7.240e+0, 7.104e-5
7.280e+0, 7.138e-5
7.320e+0, 7.162e-5
7.360e+0, 7.199e-5
7.400e+0, 7.227e-5
7.440e+0, 7.284e-5
7.480e+0, 7.340e-5
7.520e+0, 7.395e-5
7.560e+0, 7.422e-5
7.600e+0, 7.446e-5
7.640e+0, 7.526e-5
7.680e+0, 7.572e-5
7.720e+0, 7.508e-5
7.760e+0, 7.558e-5
7.800e+0, 7.536e-5
7.840e+0, 7.552e-5
7.880e+0, 7.588e-5
7.920e+0, 7.601e-5
7.960e+0, 7.637e-5
8.000e+0, 7.667e-5
8.040e+0, 7.673e-5
8.080e+0, 7.696e-5
8.120e+0, 7.693e-5
8.160e+0, 7.683e-5
8.200e+0, 7.693e-5
8.240e+0, 7.695e-5
8.280e+0, 7.700e-5
8.320e+0, 7.696e-5
8.360e+0, 7.698e-5
8.400e+0, 7.723e-5
8.440e+0, 7.725e-5
8.480e+0, 7.743e-5
8.520e+0, 7.772e-5
8.560e+0, 7.748e-5
8.600e+0, 7.719e-5
8.640e+0, 7.700e-5
8.680e+0, 7.740e-5
8.720e+0, 7.798e-5
8.760e+0, 7.824e-5
8.800e+0, 7.842e-5
8.840e+0, 7.881e-5
8.880e+0, 7.889e-5
8.920e+0, 7.893e-5
8.960e+0, 7.893e-5
9.000e+0, 7.902e-5
9.040e+0, 7.915e-5
9.080e+0, 7.943e-5
9.120e+0, 7.990e-5
9.160e+0, 8.021e-5
9.200e+0, 8.056e-5
9.240e+0, 8.007e-5
9.280e+0, 8.031e-5
9.320e+0, 8.020e-5
9.360e+0, 7.960e-5
9.400e+0, 7.999e-5
9.440e+0, 8.058e-5
9.480e+0, 8.095e-5
9.520e+0, 8.135e-5
9.560e+0, 8.172e-5
9.600e+0, 8.185e-5
9.640e+0, 8.192e-5
9.680e+0, 8.245e-5
9.720e+0, 8.272e-5
9.760e+0, 8.306e-5
9.800e+0, 8.333e-5
9.840e+0, 8.350e-5
9.880e+0, 8.337e-5
9.920e+0, 8.376e-5
9.960e+0, 8.370e-5
1.000e+1, 8.366e-5
1.004e+1, 8.363e-5
1.008e+1, 8.358e-5
1.012e+1, 8.375e-5
1.016e+1, 8.423e-5
1.020e+1, 8.454e-5
1.024e+1, 8.482e-5
1.028e+1, 8.512e-5
1.032e+1, 8.526e-5
1.036e+1, 8.530e-5
1.040e+1, 8.516e-5
1.044e+1, 8.528e-5
1.048e+1, 8.539e-5
1.052e+1, 8.578e-5
1.056e+1, 8.590e-5
1.060e+1, 8.588e-5
1.064e+1, 8.585e-5
1.068e+1, 8.598e-5
1.072e+1, 8.646e-5
1.076e+1, 8.656e-5
1.080e+1, 8.626e-5
1.084e+1, 8.669e-5
1.088e+1, 8.675e-5
1.092e+1, 8.666e-5
1.096e+1, 8.666e-5
1.100e+1, 8.657e-5
1.104e+1, 8.701e-5
1.108e+1, 8.702e-5
1.112e+1, 8.692e-5
1.116e+1, 8.697e-5
1.120e+1, 8.718e-5
1.124e+1, 8.741e-5
1.128e+1, 8.731e-5
1.132e+1, 8.753e-5
1.136e+1, 8.762e-5
1.140e+1, 8.793e-5
1.144e+1, 8.795e-5
1.148e+1, 8.793e-5
1.152e+1, 8.783e-5
1.156e+1, 8.807e-5
1.160e+1, 8.849e-5
1.164e+1, 8.866e-5
1.168e+1, 8.903e-5
1.172e+1, 8.906e-5
1.176e+1, 8.912e-5
1.180e+1, 8.921e-5
1.184e+1, 8.926e-5
1.188e+1, 8.923e-5
1.192e+1, 8.938e-5
1.196e+1, 8.941e-5
1.200e+1, 8.959e-5
1.204e+1, 8.951e-5
1.208e+1, 8.947e-5
1.212e+1, 8.941e-5
1.216e+1, 8.959e-5
1.220e+1, 9.016e-5
1.224e+1, 9.072e-5
1.228e+1, 9.025e-5
1.232e+1, 8.983e-5
1.236e+1, 9.016e-5
1.240e+1, 9.054e-5
1.244e+1, 9.105e-5
1.248e+1, 9.139e-5
1.252e+1, 9.162e-5
1.256e+1, 9.181e-5
1.260e+1, 9.205e-5
1.264e+1, 9.202e-5
1.268e+1, 9.207e-5
1.272e+1, 9.226e-5
1.276e+1, 9.239e-5
1.280e+1, 9.245e-5
1.284e+1, 9.241e-5
1.288e+1, 9.221e-5
1.292e+1, 9.234e-5
1.296e+1, 9.265e-5
1.300e+1, 9.295e-5
1.304e+1, 9.275e-5
1.308e+1, 9.232e-5
1.312e+1, 9.270e-5
1.316e+1, 9.309e-5
1.320e+1, 9.337e-5
1.324e+1, 9.355e-5
1.328e+1, 9.359e-5
1.332e+1, 9.360e-5
1.336e+1, 9.368e-5
1.340e+1, 9.373e-5
1.344e+1, 9.376e-5
1.348e+1, 9.371e-5
1.352e+1, 9.383e-5
1.356e+1, 9.384e-5
1.360e+1, 9.398e-5
1.364e+1, 9.376e-5
1.368e+1, 9.379e-5
1.372e+1, 9.404e-5
1.376e+1, 9.462e-5
1.380e+1, 9.453e-5
1.384e+1, 9.412e-5
1.388e+1, 9.458e-5
1.392e+1, 9.454e-5
1.396e+1, 9.512e-5
1.400e+1, 9.532e-5
1.404e+1, 9.531e-5
1.408e+1, 9.558e-5
1.412e+1, 9.571e-5
1.416e+1, 9.554e-5
1.420e+1, 9.582e-5
1.424e+1, 9.598e-5
1.428e+1, 9.599e-5
1.432e+1, 9.590e-5
1.436e+1, 9.565e-5
1.440e+1, 9.575e-5
1.444e+1, 9.567e-5
1.448e+1, 9.579e-5
1.452e+1, 9.591e-5
1.456e+1, 9.626e-5
1.460e+1, 9.623e-5
1.464e+1, 9.622e-5
1.468e+1, 9.658e-5
1.472e+1, 9.675e-5
1.476e+1, 9.707e-5
1.480e+1, 9.710e-5
1.484e+1, 9.730e-5
1.488e+1, 9.736e-5
1.492e+1, 9.749e-5
1.496e+1, 9.745e-5
1.500e+1, 9.745e-5
1.504e+1, 9.772e-5
1.508e+1, 9.760e-5
1.512e+1, 9.754e-5
1.516e+1, 9.743e-5
1.520e+1, 9.751e-5
1.524e+1, 9.747e-5
1.528e+1, 9.767e-5
1.532e+1, 9.808e-5
1.536e+1, 9.813e-5
1.540e+1, 9.787e-5
1.544e+1, 9.829e-5
1.548e+1, 9.830e-5
1.552e+1, 9.855e-5
1.556e+1, 9.902e-5
1.560e+1, 9.912e-5
1.564e+1, 9.922e-5
1.568e+1, 9.936e-5
1.572e+1, 9.906e-5
1.576e+1, 9.883e-5
1.580e+1, 9.892e-5
1.584e+1, 9.886e-5
1.588e+1, 9.863e-5
1.592e+1, 9.892e-5
1.596e+1, 9.871e-5
1.600e+1, 9.850e-5
1.604e+1, 9.881e-5
1.608e+1, 9.907e-5
1.612e+1, 9.941e-5
1.616e+1, 9.951e-5
1.620e+1, 9.944e-5
1.624e+1, 9.963e-5
1.628e+1, 9.978e-5
1.632e+1, 1.003e-4
1.636e+1, 1.005e-4
1.640e+1, 1.006e-4
1.644e+1, 1.007e-4
1.648e+1, 1.008e-4
1.652e+1, 1.007e-4
1.656e+1, 1.006e-4
1.660e+1, 1.005e-4
1.664e+1, 1.006e-4
1.668e+1, 1.006e-4
1.672e+1, 1.004e-4
1.676e+1, 1.002e-4
1.680e+1, 1.004e-4
1.684e+1, 1.006e-4
1.688e+1, 1.010e-4
1.692e+1, 1.013e-4
1.696e+1, 1.015e-4
1.700e+1, 1.021e-4
1.704e+1, 1.022e-4
1.708e+1, 1.026e-4
1.712e+1, 1.027e-4
1.716e+1, 1.027e-4
1.720e+1, 1.027e-4
1.724e+1, 1.027e-4
1.728e+1, 1.026e-4
1.732e+1, 1.025e-4
1.736e+1, 1.026e-4
1.740e+1, 1.024e-4
1.744e+1, 1.025e-4
1.748e+1, 1.022e-4
1.752e+1, 1.020e-4
1.756e+1, 1.020e-4
1.760e+1, 1.022e-4
1.764e+1, 1.025e-4
1.768e+1, 1.025e-4
1.772e+1, 1.024e-4
1.776e+1, 1.028e-4
1.780e+1, 1.030e-4
1.784e+1, 1.033e-4
1.788e+1, 1.036e-4
1.792e+1, 1.038e-4
1.796e+1, 1.039e-4
1.800e+1, 1.039e-4
1.804e+1, 1.035e-4
1.808e+1, 1.032e-4
1.812e+1, 1.033e-4
1.816e+1, 1.031e-4
1.820e+1, 1.034e-4
1.824e+1, 1.035e-4
1.828e+1, 1.033e-4
1.832e+1, 1.033e-4
1.836e+1, 1.035e-4
1.840e+1, 1.036e-4
1.844e+1, 1.039e-4
1.848e+1, 1.037e-4
1.852e+1, 1.043e-4
1.856e+1, 1.043e-4
1.860e+1, 1.050e-4
1.864e+1, 1.053e-4
1.868e+1, 1.053e-4
1.872e+1, 1.056e-4
1.876e+1, 1.058e-4
1.880e+1, 1.057e-4
1.884e+1, 1.058e-4
1.888e+1, 1.056e-4
1.892e+1, 1.049e-4
1.896e+1, 1.045e-4
1.900e+1, 1.042e-4
1.904e+1, 1.039e-4
1.908e+1, 1.038e-4
1.912e+1, 1.042e-4
1.916e+1, 1.047e-4
1.920e+1, 1.048e-4
1.924e+1, 1.047e-4
1.928e+1, 1.049e-4
1.932e+1, 1.050e-4
1.936e+1, 1.055e-4
1.940e+1, 1.056e-4
1.944e+1, 1.057e-4
1.948e+1, 1.059e-4
1.952e+1, 1.062e-4
1.956e+1, 1.062e-4
1.960e+1, 1.063e-4
1.964e+1, 1.063e-4
1.968e+1, 1.061e-4
1.972e+1, 1.063e-4
1.976e+1, 1.064e-4
1.980e+1, 1.061e-4
1.984e+1, 1.060e-4
1.988e+1, 1.061e-4
1.992e+1, 1.066e-4
1.996e+1, 1.072e-4
2.000e+1, 1.071e-4
2.004e+1, 1.073e-4
2.008e+1, 1.071e-4
2.012e+1, 1.070e-4
2.016e+1, 1.074e-4
2.020e+1, 1.076e-4
2.024e+1, 1.078e-4
2.028e+1, 1.078e-4
2.032e+1, 1.079e-4
2.036e+1, 1.079e-4
2.040e+1, 1.077e-4
2.044e+1, 1.078e-4
2.048e+1, 1.078e-4
2.052e+1, 1.078e-4
2.056e+1, 1.075e-4
2.060e+1, 1.073e-4
2.064e+1, 1.074e-4
2.068e+1, 1.076e-4
2.072e+1, 1.078e-4
2.076e+1, 1.076e-4
2.080e+1, 1.079e-4
2.084e+1, 1.079e-4
2.088e+1, 1.081e-4
2.092e+1, 1.085e-4
2.096e+1, 1.088e-4
2.100e+1, 1.090e-4
2.104e+1, 1.089e-4
2.108e+1, 1.092e-4
2.112e+1, 1.092e-4
2.116e+1, 1.091e-4
2.120e+1, 1.091e-4
2.124e+1, 1.090e-4
2.128e+1, 1.089e-4
2.132e+1, 1.088e-4
2.136e+1, 1.089e-4
2.140e+1, 1.091e-4
2.144e+1, 1.095e-4
2.148e+1, 1.097e-4
2.152e+1, 1.097e-4
2.156e+1, 1.096e-4
2.160e+1, 1.099e-4
2.164e+1, 1.102e-4
2.168e+1, 1.106e-4
2.172e+1, 1.108e-4
2.176e+1, 1.110e-4
2.180e+1, 1.111e-4
2.184e+1, 1.111e-4
2.188e+1, 1.111e-4
2.192e+1, 1.108e-4
2.196e+1, 1.105e-4
2.200e+1, 1.104e-4
2.204e+1, 1.105e-4
2.208e+1, 1.105e-4
2.212e+1, 1.104e-4
2.216e+1, 1.105e-4
2.220e+1, 1.107e-4
2.224e+1, 1.107e-4
2.228e+1, 1.103e-4
2.232e+1, 1.104e-4
2.236e+1, 1.107e-4
2.240e+1, 1.109e-4
2.244e+1, 1.112e-4
2.248e+1, 1.113e-4
2.252e+1, 1.116e-4
2.256e+1, 1.116e-4
2.260e+1, 1.111e-4
2.264e+1, 1.111e-4
2.268e+1, 1.112e-4
2.272e+1, 1.107e-4
2.276e+1, 1.106e-4
2.280e+1, 1.105e-4
2.284e+1, 1.107e-4
2.288e+1, 1.105e-4
2.292e+1, 1.106e-4
2.296e+1, 1.105e-4
2.300e+1, 1.109e-4
2.304e+1, 1.110e-4
2.308e+1, 1.111e-4
2.312e+1, 1.114e-4
2.316e+1, 1.114e-4
2.320e+1, 1.118e-4
2.324e+1, 1.117e-4
2.328e+1, 1.116e-4
2.332e+1, 1.115e-4
2.336e+1, 1.112e-4
2.340e+1, 1.111e-4
2.344e+1, 1.113e-4
2.348e+1, 1.109e-4
2.352e+1, 1.099e-4
2.356e+1, 1.087e-4
2.360e+1, 1.072e-4
2.364e+1, 1.052e-4
2.368e+1, 1.029e-4
2.372e+1, 1.003e-4
2.376e+1, 9.365e-5
2.380e+1, 8.163e-5
2.384e+1, 7.647e-5
2.388e+1, 7.655e-5
2.392e+1, 7.336e-5
2.396e+1, 5.429e-5
2.400e+1, 1.993e-5
2.404e+1, 1.393e-5
2.408e+1, 1.555e-5
2.412e+1, 4.893e-5
2.416e+1, 3.703e-5
2.420e+1, 4.263e-5
2.424e+1, 4.235e-5
2.428e+1, 3.968e-5
2.432e+1, 3.911e-5
2.436e+1, 4.125e-5
2.440e+1, 3.889e-5
2.444e+1, 1.723e-5
2.448e+1, 1.753e-5
2.452e+1, 4.319e-5
2.456e+1, 4.473e-5
2.460e+1, 3.821e-5
2.464e+1, 3.469e-5
2.468e+1, 3.331e-5
2.472e+1, 2.032e-5
2.476e+1, 1.372e-5
2.480e+1, 2.542e-5
2.484e+1, 2.096e-5
2.488e+1, 8.976e-6
2.492e+1, 1.152e-5
2.496e+1, 2.311e-5
2.500e+1, 3.221e-5
2.504e+1, 1.007e-5
2.508e+1, 1.645e-5
2.512e+1, 3.465e-5
2.516e+1, 5.274e-5
2.520e+1, 5.375e-5
2.524e+1, 5.479e-5
2.528e+1, 5.567e-5
2.532e+1, 5.694e-5
2.536e+1, 5.732e-5
