July 5, 2024   00:08:48
Amperometric i-t Curve
File: 0.3-0.03-3
Data Source:  Experiment
Instrument Model:  CHI760E
Header: 
Note: 

Init E (V) = 0.3
Sample Interval (s) = 0.03
Run Time (sec) = 4e+3
Quiet Time (sec) = 0
Sensitivity (A/V) = 1e-5

Results:

Channel 1:

Time/sec, Current/A

3.000e-2, 2.379e-7
6.000e-2, 5.310e-7
9.000e-2, 1.102e-6
1.200e-1, 9.718e-7
1.500e-1, 1.171e-6
1.800e-1, 1.402e-6
2.100e-1, 1.270e-6
2.400e-1, 1.865e-6
2.700e-1, 2.512e-6
3.000e-1, 3.187e-6
3.300e-1, 3.723e-6
3.600e-1, 4.114e-6
3.900e-1, 4.440e-6
4.200e-1, 4.124e-6
4.500e-1, 4.145e-6
4.800e-1, 5.107e-6
5.100e-1, 5.640e-6
5.400e-1, 5.985e-6
5.700e-1, 6.187e-6
6.000e-1, 6.644e-6
6.300e-1, 7.335e-6
6.600e-1, 7.897e-6
6.900e-1, 7.774e-6
7.200e-1, 7.934e-6
7.500e-1, 8.015e-6
7.800e-1, 9.161e-6
8.100e-1, 9.878e-6
8.400e-1, 9.377e-6
8.700e-1, 1.013e-5
9.000e-1, 1.085e-5
9.300e-1, 1.160e-5
9.600e-1, 1.161e-5
9.900e-1, 1.222e-5
1.020e+0, 1.363e-5
1.050e+0, 1.440e-5
1.080e+0, 1.468e-5
1.110e+0, 1.455e-5
1.140e+0, 1.427e-5
1.170e+0, 1.406e-5
1.200e+0, 1.378e-5
1.230e+0, 1.406e-5
1.260e+0, 1.443e-5
1.290e+0, 1.520e-5
1.320e+0, 1.568e-5
1.350e+0, 1.646e-5
1.380e+0, 1.668e-5
1.410e+0, 1.701e-5
1.440e+0, 1.706e-5
1.470e+0, 1.717e-5
1.500e+0, 1.695e-5
1.530e+0, 1.665e-5
1.560e+0, 1.689e-5
1.590e+0, 1.700e-5
1.620e+0, 1.718e-5
1.650e+0, 1.742e-5
1.680e+0, 1.769e-5
1.710e+0, 1.801e-5
1.740e+0, 1.822e-5
1.770e+0, 1.836e-5
1.800e+0, 1.844e-5
1.830e+0, 1.848e-5
1.860e+0, 1.848e-5
1.890e+0, 1.824e-5
1.920e+0, 1.807e-5
1.950e+0, 1.822e-5
1.980e+0, 1.795e-5
2.010e+0, 1.820e-5
2.040e+0, 1.836e-5
2.070e+0, 1.847e-5
2.100e+0, 1.865e-5
2.130e+0, 1.890e-5
2.160e+0, 1.920e-5
2.190e+0, 1.917e-5
2.220e+0, 1.903e-5
2.250e+0, 2.002e-5
2.280e+0, 2.036e-5
2.310e+0, 2.048e-5
2.340e+0, 2.052e-5
2.370e+0, 2.058e-5
2.400e+0, 2.065e-5
2.430e+0, 2.087e-5
2.460e+0, 2.119e-5
2.490e+0, 2.141e-5
2.520e+0, 2.159e-5
2.550e+0, 2.158e-5
2.580e+0, 2.159e-5
2.610e+0, 2.163e-5
2.640e+0, 2.150e-5
2.670e+0, 2.182e-5
2.700e+0, 2.213e-5
2.730e+0, 2.234e-5
2.760e+0, 2.259e-5
2.790e+0, 2.287e-5
2.820e+0, 2.306e-5
2.850e+0, 2.306e-5
2.880e+0, 2.346e-5
2.910e+0, 2.381e-5
2.940e+0, 2.399e-5
2.970e+0, 2.421e-5
3.000e+0, 2.432e-5
3.030e+0, 2.471e-5
3.060e+0, 2.490e-5
3.090e+0, 2.496e-5
3.120e+0, 2.510e-5
3.150e+0, 2.491e-5
3.180e+0, 2.470e-5
3.210e+0, 2.485e-5
3.240e+0, 2.471e-5
3.270e+0, 2.473e-5
3.300e+0, 2.458e-5
3.330e+0, 2.460e-5
3.360e+0, 2.529e-5
3.390e+0, 2.511e-5
3.420e+0, 2.428e-5
3.450e+0, 2.435e-5
3.480e+0, 2.466e-5
3.510e+0, 2.494e-5
3.540e+0, 2.525e-5
3.570e+0, 2.549e-5
3.600e+0, 2.556e-5
3.630e+0, 2.547e-5
3.660e+0, 2.576e-5
3.690e+0, 2.590e-5
3.720e+0, 2.601e-5
3.750e+0, 2.577e-5
3.780e+0, 2.600e-5
3.810e+0, 2.614e-5
3.840e+0, 2.593e-5
3.870e+0, 2.613e-5
3.900e+0, 2.629e-5
3.930e+0, 2.642e-5
3.960e+0, 2.639e-5
3.990e+0, 2.635e-5
4.020e+0, 2.659e-5
4.050e+0, 2.684e-5
4.080e+0, 2.728e-5
4.110e+0, 2.747e-5
4.140e+0, 2.775e-5
4.170e+0, 2.721e-5
4.200e+0, 2.680e-5
4.230e+0, 2.822e-5
4.260e+0, 2.825e-5
4.290e+0, 2.848e-5
4.320e+0, 2.837e-5
4.350e+0, 2.829e-5
4.380e+0, 2.836e-5
4.410e+0, 2.864e-5
4.440e+0, 2.881e-5
4.470e+0, 2.891e-5
4.500e+0, 2.916e-5
4.530e+0, 2.908e-5
4.560e+0, 2.906e-5
4.590e+0, 2.918e-5
4.620e+0, 2.930e-5
4.650e+0, 2.865e-5
4.680e+0, 2.794e-5
4.710e+0, 2.805e-5
4.740e+0, 2.803e-5
4.770e+0, 2.826e-5
4.800e+0, 2.831e-5
4.830e+0, 2.824e-5
4.860e+0, 2.825e-5
4.890e+0, 2.823e-5
4.920e+0, 2.830e-5
4.950e+0, 2.850e-5
4.980e+0, 2.829e-5
5.010e+0, 2.751e-5
5.040e+0, 2.871e-5
5.070e+0, 2.876e-5
5.100e+0, 2.891e-5
5.130e+0, 2.875e-5
5.160e+0, 2.893e-5
5.190e+0, 2.878e-5
5.220e+0, 2.798e-5
5.250e+0, 2.961e-5
5.280e+0, 3.002e-5
5.310e+0, 3.019e-5
5.340e+0, 3.006e-5
5.370e+0, 2.927e-5
5.400e+0, 2.940e-5
5.430e+0, 2.909e-5
5.460e+0, 2.920e-5
5.490e+0, 2.942e-5
5.520e+0, 2.940e-5
5.550e+0, 2.936e-5
5.580e+0, 2.917e-5
5.610e+0, 2.904e-5
5.640e+0, 2.908e-5
5.670e+0, 2.920e-5
5.700e+0, 2.841e-5
5.730e+0, 2.842e-5
5.760e+0, 2.849e-5
5.790e+0, 2.845e-5
5.820e+0, 2.873e-5
5.850e+0, 2.813e-5
5.880e+0, 2.821e-5
5.910e+0, 2.892e-5
5.940e+0, 2.919e-5
5.970e+0, 2.926e-5
6.000e+0, 2.939e-5
6.030e+0, 2.904e-5
6.060e+0, 2.952e-5
6.090e+0, 3.066e-5
6.120e+0, 3.062e-5
6.150e+0, 3.120e-5
6.180e+0, 3.185e-5
6.210e+0, 3.203e-5
6.240e+0, 3.202e-5
6.270e+0, 3.197e-5
6.300e+0, 3.105e-5
6.330e+0, 3.078e-5
6.360e+0, 3.135e-5
6.390e+0, 3.163e-5
6.420e+0, 3.191e-5
6.450e+0, 3.186e-5
6.480e+0, 3.190e-5
6.510e+0, 3.221e-5
6.540e+0, 3.219e-5
6.570e+0, 3.228e-5
6.600e+0, 3.233e-5
6.630e+0, 3.228e-5
6.660e+0, 3.101e-5
6.690e+0, 3.103e-5
6.720e+0, 3.047e-5
6.750e+0, 3.036e-5
6.780e+0, 3.036e-5
6.810e+0, 3.053e-5
6.840e+0, 3.075e-5
6.870e+0, 3.106e-5
6.900e+0, 3.133e-5
6.930e+0, 3.162e-5
6.960e+0, 3.211e-5
6.990e+0, 3.231e-5
7.020e+0, 3.218e-5
7.050e+0, 3.244e-5
7.080e+0, 3.270e-5
7.110e+0, 3.288e-5
7.140e+0, 3.359e-5
7.170e+0, 3.389e-5
7.200e+0, 3.361e-5
7.230e+0, 3.369e-5
7.260e+0, 3.409e-5
7.290e+0, 3.415e-5
7.320e+0, 3.427e-5
7.350e+0, 3.423e-5
7.380e+0, 3.452e-5
7.410e+0, 3.342e-5
7.440e+0, 3.346e-5
7.470e+0, 3.361e-5
7.500e+0, 3.272e-5
7.530e+0, 3.266e-5
7.560e+0, 3.227e-5
7.590e+0, 3.213e-5
7.620e+0, 3.206e-5
7.650e+0, 3.211e-5
7.680e+0, 3.241e-5
7.710e+0, 3.258e-5
7.740e+0, 3.353e-5
7.770e+0, 3.322e-5
7.800e+0, 3.392e-5
7.830e+0, 3.417e-5
7.860e+0, 3.459e-5
7.890e+0, 3.453e-5
7.920e+0, 3.496e-5
7.950e+0, 3.519e-5
7.980e+0, 3.562e-5
8.010e+0, 3.570e-5
8.040e+0, 3.442e-5
8.070e+0, 3.451e-5
8.100e+0, 3.562e-5
8.130e+0, 3.472e-5
8.160e+0, 3.447e-5
8.190e+0, 3.423e-5
8.220e+0, 3.440e-5
8.250e+0, 3.438e-5
8.280e+0, 3.441e-5
8.310e+0, 3.485e-5
8.340e+0, 3.476e-5
8.370e+0, 3.478e-5
8.400e+0, 3.512e-5
8.430e+0, 3.522e-5
8.460e+0, 3.546e-5
8.490e+0, 3.574e-5
8.520e+0, 3.581e-5
8.550e+0, 3.609e-5
8.580e+0, 3.625e-5
8.610e+0, 3.637e-5
8.640e+0, 3.647e-5
8.670e+0, 3.654e-5
8.700e+0, 3.617e-5
8.730e+0, 3.542e-5
8.760e+0, 3.564e-5
8.790e+0, 3.604e-5
8.820e+0, 3.644e-5
8.850e+0, 3.609e-5
8.880e+0, 3.652e-5
8.910e+0, 3.658e-5
8.940e+0, 3.598e-5
8.970e+0, 3.593e-5
9.000e+0, 3.614e-5
9.030e+0, 3.634e-5
9.060e+0, 3.633e-5
9.090e+0, 3.624e-5
9.120e+0, 3.538e-5
9.150e+0, 3.508e-5
9.180e+0, 3.501e-5
9.210e+0, 3.509e-5
9.240e+0, 3.519e-5
9.270e+0, 3.537e-5
9.300e+0, 3.578e-5
9.330e+0, 3.572e-5
9.360e+0, 3.571e-5
9.390e+0, 3.600e-5
9.420e+0, 3.614e-5
9.450e+0, 3.618e-5
9.480e+0, 3.619e-5
9.510e+0, 3.618e-5
9.540e+0, 3.622e-5
9.570e+0, 3.642e-5
9.600e+0, 3.660e-5
9.630e+0, 3.646e-5
9.660e+0, 3.637e-5
9.690e+0, 3.627e-5
9.720e+0, 3.625e-5
9.750e+0, 3.643e-5
9.780e+0, 3.660e-5
9.810e+0, 3.681e-5
9.840e+0, 3.706e-5
9.870e+0, 3.725e-5
9.900e+0, 3.774e-5
9.930e+0, 3.671e-5
9.960e+0, 3.621e-5
9.990e+0, 3.688e-5
1.002e+1, 3.772e-5
1.005e+1, 3.784e-5
1.008e+1, 3.813e-5
1.011e+1, 3.833e-5
1.014e+1, 3.815e-5
1.017e+1, 3.843e-5
1.020e+1, 3.879e-5
1.023e+1, 3.893e-5
1.026e+1, 3.902e-5
1.029e+1, 3.888e-5
1.032e+1, 3.916e-5
1.035e+1, 3.913e-5
1.038e+1, 3.771e-5
1.041e+1, 3.777e-5
1.044e+1, 3.784e-5
1.047e+1, 3.816e-5
1.050e+1, 3.829e-5
1.053e+1, 3.839e-5
1.056e+1, 3.820e-5
1.059e+1, 3.829e-5
1.062e+1, 3.877e-5
1.065e+1, 3.812e-5
1.068e+1, 3.875e-5
1.071e+1, 3.984e-5
1.074e+1, 3.834e-5
1.077e+1, 3.753e-5
1.080e+1, 3.683e-5
1.083e+1, 3.718e-5
1.086e+1, 3.748e-5
1.089e+1, 3.830e-5
1.092e+1, 3.896e-5
1.095e+1, 3.934e-5
1.098e+1, 3.954e-5
1.101e+1, 3.968e-5
1.104e+1, 3.983e-5
1.107e+1, 3.987e-5
1.110e+1, 4.003e-5
1.113e+1, 4.003e-5
1.116e+1, 4.000e-5
1.119e+1, 4.022e-5
1.122e+1, 4.046e-5
1.125e+1, 4.043e-5
1.128e+1, 3.948e-5
1.131e+1, 3.966e-5
1.134e+1, 4.011e-5
1.137e+1, 4.002e-5
1.140e+1, 3.974e-5
1.143e+1, 3.974e-5
1.146e+1, 3.983e-5
1.149e+1, 4.005e-5
1.152e+1, 3.997e-5
1.155e+1, 3.919e-5
1.158e+1, 3.831e-5
1.161e+1, 3.819e-5
1.164e+1, 3.844e-5
1.167e+1, 3.897e-5
1.170e+1, 3.948e-5
1.173e+1, 3.961e-5
1.176e+1, 4.037e-5
1.179e+1, 4.071e-5
1.182e+1, 4.080e-5
1.185e+1, 4.100e-5
1.188e+1, 4.116e-5
1.191e+1, 4.137e-5
1.194e+1, 4.162e-5
1.197e+1, 4.183e-5
1.200e+1, 4.196e-5
1.203e+1, 4.211e-5
1.206e+1, 4.237e-5
1.209e+1, 4.265e-5
1.212e+1, 4.288e-5
1.215e+1, 4.307e-5
1.218e+1, 4.303e-5
1.221e+1, 4.273e-5
1.224e+1, 4.184e-5
1.227e+1, 4.156e-5
1.230e+1, 4.149e-5
1.233e+1, 4.184e-5
1.236e+1, 3.972e-5
1.239e+1, 3.925e-5
1.242e+1, 3.940e-5
1.245e+1, 3.980e-5
1.248e+1, 4.031e-5
1.251e+1, 4.029e-5
1.254e+1, 4.073e-5
1.257e+1, 4.056e-5
1.260e+1, 4.090e-5
1.263e+1, 4.151e-5
1.266e+1, 4.150e-5
1.269e+1, 4.053e-5
1.272e+1, 4.112e-5
1.275e+1, 4.061e-5
1.278e+1, 4.024e-5
1.281e+1, 3.992e-5
1.284e+1, 3.973e-5
1.287e+1, 3.986e-5
1.290e+1, 4.018e-5
1.293e+1, 4.045e-5
1.296e+1, 4.033e-5
1.299e+1, 4.023e-5
1.302e+1, 4.035e-5
1.305e+1, 4.047e-5
1.308e+1, 4.057e-5
1.311e+1, 4.057e-5
1.314e+1, 4.000e-5
1.317e+1, 4.003e-5
1.320e+1, 4.015e-5
1.323e+1, 4.014e-5
1.326e+1, 3.989e-5
1.329e+1, 4.051e-5
1.332e+1, 4.120e-5
1.335e+1, 4.161e-5
1.338e+1, 4.178e-5
1.341e+1, 4.187e-5
1.344e+1, 4.211e-5
1.347e+1, 4.214e-5
1.350e+1, 4.177e-5
1.353e+1, 4.179e-5
1.356e+1, 4.228e-5
1.359e+1, 4.246e-5
1.362e+1, 4.185e-5
1.365e+1, 4.172e-5
1.368e+1, 4.198e-5
1.371e+1, 4.233e-5
1.374e+1, 4.235e-5
1.377e+1, 4.237e-5
1.380e+1, 4.246e-5
1.383e+1, 4.266e-5
1.386e+1, 4.278e-5
1.389e+1, 4.283e-5
1.392e+1, 4.229e-5
1.395e+1, 4.232e-5
1.398e+1, 4.187e-5
1.401e+1, 4.211e-5
1.404e+1, 4.225e-5
1.407e+1, 4.272e-5
1.410e+1, 4.345e-5
1.413e+1, 4.385e-5
1.416e+1, 4.440e-5
1.419e+1, 4.452e-5
1.422e+1, 4.457e-5
1.425e+1, 4.469e-5
1.428e+1, 4.479e-5
1.431e+1, 4.474e-5
1.434e+1, 4.455e-5
1.437e+1, 4.434e-5
1.440e+1, 4.343e-5
1.443e+1, 4.314e-5
1.446e+1, 4.317e-5
1.449e+1, 4.321e-5
1.452e+1, 4.321e-5
1.455e+1, 4.366e-5
1.458e+1, 4.376e-5
1.461e+1, 4.280e-5
1.464e+1, 4.230e-5
1.467e+1, 4.235e-5
1.470e+1, 4.225e-5
1.473e+1, 4.211e-5
1.476e+1, 4.281e-5
1.479e+1, 4.302e-5
1.482e+1, 4.340e-5
1.485e+1, 4.366e-5
1.488e+1, 4.387e-5
1.491e+1, 4.453e-5
1.494e+1, 4.341e-5
1.497e+1, 4.343e-5
1.500e+1, 4.416e-5
1.503e+1, 4.458e-5
1.506e+1, 4.470e-5
1.509e+1, 4.469e-5
1.512e+1, 4.498e-5
1.515e+1, 4.514e-5
1.518e+1, 4.504e-5
1.521e+1, 4.511e-5
1.524e+1, 4.590e-5
1.527e+1, 4.580e-5
1.530e+1, 4.648e-5
1.533e+1, 4.687e-5
1.536e+1, 4.687e-5
1.539e+1, 4.684e-5
1.542e+1, 4.712e-5
1.545e+1, 4.666e-5
1.548e+1, 4.699e-5
1.551e+1, 4.614e-5
1.554e+1, 4.419e-5
1.557e+1, 4.460e-5
1.560e+1, 4.527e-5
1.563e+1, 4.582e-5
1.566e+1, 4.590e-5
1.569e+1, 4.592e-5
1.572e+1, 4.599e-5
1.575e+1, 4.513e-5
1.578e+1, 4.597e-5
1.581e+1, 4.578e-5
1.584e+1, 4.589e-5
1.587e+1, 4.584e-5
1.590e+1, 4.513e-5
1.593e+1, 4.496e-5
1.596e+1, 4.493e-5
1.599e+1, 4.493e-5
1.602e+1, 4.493e-5
1.605e+1, 4.490e-5
1.608e+1, 4.519e-5
1.611e+1, 4.530e-5
1.614e+1, 4.558e-5
1.617e+1, 4.559e-5
1.620e+1, 4.565e-5
1.623e+1, 4.563e-5
1.626e+1, 4.577e-5
1.629e+1, 4.568e-5
1.632e+1, 4.592e-5
1.635e+1, 4.625e-5
1.638e+1, 4.617e-5
1.641e+1, 4.620e-5
1.644e+1, 4.613e-5
1.647e+1, 4.627e-5
1.650e+1, 4.638e-5
1.653e+1, 4.658e-5
1.656e+1, 4.706e-5
1.659e+1, 4.709e-5
1.662e+1, 4.718e-5
1.665e+1, 4.665e-5
1.668e+1, 4.618e-5
1.671e+1, 4.644e-5
1.674e+1, 4.659e-5
1.677e+1, 4.662e-5
1.680e+1, 4.662e-5
1.683e+1, 4.653e-5
1.686e+1, 4.680e-5
1.689e+1, 4.689e-5
1.692e+1, 4.671e-5
1.695e+1, 4.668e-5
1.698e+1, 4.661e-5
1.701e+1, 4.646e-5
1.704e+1, 4.620e-5
1.707e+1, 4.643e-5
1.710e+1, 4.602e-5
1.713e+1, 4.599e-5
1.716e+1, 4.619e-5
1.719e+1, 4.663e-5
1.722e+1, 4.690e-5
1.725e+1, 4.674e-5
1.728e+1, 4.717e-5
1.731e+1, 4.764e-5
1.734e+1, 4.831e-5
1.737e+1, 4.852e-5
1.740e+1, 4.848e-5
1.743e+1, 4.766e-5
1.746e+1, 4.718e-5
1.749e+1, 4.750e-5
1.752e+1, 4.767e-5
1.755e+1, 4.779e-5
1.758e+1, 4.776e-5
1.761e+1, 4.802e-5
1.764e+1, 4.804e-5
1.767e+1, 4.779e-5
1.770e+1, 4.771e-5
1.773e+1, 4.771e-5
1.776e+1, 4.776e-5
1.779e+1, 4.775e-5
1.782e+1, 4.773e-5
1.785e+1, 4.768e-5
1.788e+1, 4.735e-5
1.791e+1, 4.610e-5
1.794e+1, 4.645e-5
1.797e+1, 4.651e-5
1.800e+1, 4.686e-5
1.803e+1, 4.724e-5
1.806e+1, 4.739e-5
1.809e+1, 4.750e-5
1.812e+1, 4.779e-5
1.815e+1, 4.811e-5
1.818e+1, 4.829e-5
1.821e+1, 4.840e-5
1.824e+1, 4.849e-5
1.827e+1, 4.828e-5
1.830e+1, 4.825e-5
1.833e+1, 4.832e-5
1.836e+1, 4.808e-5
1.839e+1, 4.784e-5
1.842e+1, 4.809e-5
1.845e+1, 4.822e-5
1.848e+1, 4.822e-5
1.851e+1, 4.795e-5
1.854e+1, 4.788e-5
1.857e+1, 4.802e-5
1.860e+1, 4.835e-5
1.863e+1, 4.832e-5
1.866e+1, 4.812e-5
1.869e+1, 4.770e-5
1.872e+1, 4.737e-5
1.875e+1, 4.679e-5
1.878e+1, 4.696e-5
1.881e+1, 4.729e-5
1.884e+1, 4.761e-5
1.887e+1, 4.770e-5
1.890e+1, 4.734e-5
1.893e+1, 4.769e-5
1.896e+1, 4.781e-5
1.899e+1, 4.800e-5
1.902e+1, 4.817e-5
1.905e+1, 4.832e-5
1.908e+1, 4.798e-5
1.911e+1, 4.777e-5
1.914e+1, 4.795e-5
1.917e+1, 4.809e-5
1.920e+1, 4.797e-5
1.923e+1, 4.802e-5
1.926e+1, 4.827e-5
1.929e+1, 4.880e-5
1.932e+1, 4.813e-5
1.935e+1, 4.776e-5
1.938e+1, 4.831e-5
1.941e+1, 4.822e-5
1.944e+1, 4.833e-5
1.947e+1, 4.862e-5
1.950e+1, 4.803e-5
1.953e+1, 4.723e-5
1.956e+1, 4.752e-5
1.959e+1, 4.796e-5
1.962e+1, 4.826e-5
1.965e+1, 4.840e-5
1.968e+1, 4.871e-5
1.971e+1, 4.889e-5
1.974e+1, 4.896e-5
1.977e+1, 4.919e-5
1.980e+1, 4.959e-5
1.983e+1, 4.979e-5
1.986e+1, 4.981e-5
1.989e+1, 5.004e-5
1.992e+1, 5.041e-5
1.995e+1, 5.076e-5
1.998e+1, 5.079e-5
2.001e+1, 5.098e-5
2.004e+1, 5.111e-5
2.007e+1, 5.112e-5
2.010e+1, 5.118e-5
2.013e+1, 5.146e-5
2.016e+1, 5.125e-5
2.019e+1, 5.101e-5
2.022e+1, 5.135e-5
2.025e+1, 5.064e-5
2.028e+1, 5.068e-5
2.031e+1, 5.094e-5
2.034e+1, 5.127e-5
2.037e+1, 5.154e-5
2.040e+1, 5.181e-5
2.043e+1, 5.189e-5
2.046e+1, 5.149e-5
2.049e+1, 5.177e-5
2.052e+1, 5.192e-5
2.055e+1, 5.196e-5
2.058e+1, 5.201e-5
2.061e+1, 5.179e-5
2.064e+1, 5.168e-5
2.067e+1, 5.170e-5
2.070e+1, 5.184e-5
2.073e+1, 5.198e-5
2.076e+1, 5.217e-5
2.079e+1, 5.219e-5
2.082e+1, 5.216e-5
2.085e+1, 5.198e-5
2.088e+1, 5.178e-5
2.091e+1, 5.201e-5
2.094e+1, 5.198e-5
2.097e+1, 5.162e-5
2.100e+1, 5.190e-5
2.103e+1, 5.073e-5
2.106e+1, 5.051e-5
2.109e+1, 5.135e-5
2.112e+1, 5.175e-5
2.115e+1, 5.181e-5
2.118e+1, 5.210e-5
2.121e+1, 5.215e-5
2.124e+1, 5.222e-5
2.127e+1, 5.255e-5
2.130e+1, 5.284e-5
2.133e+1, 5.285e-5
2.136e+1, 5.281e-5
2.139e+1, 5.289e-5
2.142e+1, 5.323e-5
2.145e+1, 5.343e-5
2.148e+1, 5.311e-5
2.151e+1, 5.335e-5
2.154e+1, 5.314e-5
2.157e+1, 5.373e-5
2.160e+1, 5.374e-5
2.163e+1, 5.384e-5
2.166e+1, 5.439e-5
2.169e+1, 5.429e-5
2.172e+1, 5.443e-5
2.175e+1, 5.454e-5
2.178e+1, 5.414e-5
2.181e+1, 5.210e-5
2.184e+1, 5.232e-5
2.187e+1, 5.270e-5
2.190e+1, 5.273e-5
2.193e+1, 5.273e-5
2.196e+1, 5.290e-5
2.199e+1, 5.292e-5
2.202e+1, 5.285e-5
2.205e+1, 5.310e-5
2.208e+1, 5.337e-5
2.211e+1, 5.347e-5
2.214e+1, 5.348e-5
2.217e+1, 5.364e-5
2.220e+1, 5.395e-5
2.223e+1, 5.403e-5
2.226e+1, 5.368e-5
2.229e+1, 5.360e-5
2.232e+1, 5.367e-5
2.235e+1, 5.345e-5
2.238e+1, 5.346e-5
2.241e+1, 5.353e-5
2.244e+1, 5.429e-5
2.247e+1, 5.442e-5
2.250e+1, 5.447e-5
2.253e+1, 5.472e-5
2.256e+1, 5.407e-5
2.259e+1, 5.332e-5
2.262e+1, 5.292e-5
2.265e+1, 5.301e-5
2.268e+1, 5.291e-5
2.271e+1, 5.312e-5
2.274e+1, 5.309e-5
2.277e+1, 5.322e-5
2.280e+1, 5.324e-5
2.283e+1, 5.365e-5
2.286e+1, 5.378e-5
2.289e+1, 5.393e-5
2.292e+1, 5.407e-5
2.295e+1, 5.386e-5
2.298e+1, 5.384e-5
2.301e+1, 5.392e-5
2.304e+1, 5.416e-5
2.307e+1, 5.417e-5
2.310e+1, 5.387e-5
2.313e+1, 5.374e-5
2.316e+1, 5.397e-5
2.319e+1, 5.417e-5
2.322e+1, 5.439e-5
2.325e+1, 5.445e-5
2.328e+1, 5.440e-5
2.331e+1, 5.466e-5
2.334e+1, 5.466e-5
2.337e+1, 5.431e-5
2.340e+1, 5.284e-5
2.343e+1, 5.242e-5
2.346e+1, 5.282e-5
2.349e+1, 5.324e-5
2.352e+1, 5.375e-5
2.355e+1, 5.399e-5
2.358e+1, 5.377e-5
2.361e+1, 5.347e-5
2.364e+1, 5.382e-5
2.367e+1, 5.398e-5
2.370e+1, 5.393e-5
2.373e+1, 5.397e-5
2.376e+1, 5.433e-5
2.379e+1, 5.475e-5
2.382e+1, 5.500e-5
2.385e+1, 5.497e-5
2.388e+1, 5.502e-5
2.391e+1, 5.504e-5
2.394e+1, 5.517e-5
2.397e+1, 5.522e-5
2.400e+1, 5.514e-5
2.403e+1, 5.517e-5
2.406e+1, 5.563e-5
2.409e+1, 5.524e-5
2.412e+1, 5.524e-5
2.415e+1, 5.535e-5
2.418e+1, 5.523e-5
2.421e+1, 5.290e-5
2.424e+1, 5.233e-5
2.427e+1, 5.252e-5
2.430e+1, 5.283e-5
2.433e+1, 5.300e-5
2.436e+1, 5.325e-5
2.439e+1, 5.343e-5
2.442e+1, 5.372e-5
2.445e+1, 5.359e-5
2.448e+1, 5.409e-5
2.451e+1, 5.454e-5
2.454e+1, 5.444e-5
2.457e+1, 5.488e-5
2.460e+1, 5.534e-5
2.463e+1, 5.575e-5
2.466e+1, 5.578e-5
2.469e+1, 5.602e-5
2.472e+1, 5.632e-5
2.475e+1, 5.646e-5
2.478e+1, 5.630e-5
2.481e+1, 5.632e-5
2.484e+1, 5.654e-5
2.487e+1, 5.686e-5
2.490e+1, 5.701e-5
2.493e+1, 5.729e-5
2.496e+1, 5.676e-5
2.499e+1, 5.463e-5
2.502e+1, 5.407e-5
2.505e+1, 5.423e-5
2.508e+1, 5.433e-5
2.511e+1, 5.451e-5
2.514e+1, 5.532e-5
2.517e+1, 5.559e-5
2.520e+1, 5.601e-5
2.523e+1, 5.601e-5
2.526e+1, 5.622e-5
2.529e+1, 5.631e-5
2.532e+1, 5.626e-5
2.535e+1, 5.634e-5
2.538e+1, 5.650e-5
2.541e+1, 5.634e-5
2.544e+1, 5.612e-5
2.547e+1, 5.600e-5
2.550e+1, 5.679e-5
2.553e+1, 5.671e-5
2.556e+1, 5.700e-5
2.559e+1, 5.731e-5
2.562e+1, 5.693e-5
2.565e+1, 5.710e-5
2.568e+1, 5.743e-5
2.571e+1, 5.638e-5
2.574e+1, 5.560e-5
2.577e+1, 5.502e-5
2.580e+1, 5.547e-5
2.583e+1, 5.542e-5
2.586e+1, 5.554e-5
2.589e+1, 5.611e-5
2.592e+1, 5.627e-5
2.595e+1, 5.597e-5
2.598e+1, 5.640e-5
2.601e+1, 5.669e-5
2.604e+1, 5.649e-5
2.607e+1, 5.513e-5
2.610e+1, 5.501e-5
2.613e+1, 5.573e-5
2.616e+1, 5.597e-5
2.619e+1, 5.607e-5
2.622e+1, 5.621e-5
2.625e+1, 5.646e-5
2.628e+1, 5.659e-5
2.631e+1, 5.668e-5
2.634e+1, 5.682e-5
2.637e+1, 5.688e-5
2.640e+1, 5.662e-5
2.643e+1, 5.538e-5
2.646e+1, 5.518e-5
2.649e+1, 5.446e-5
2.652e+1, 5.392e-5
2.655e+1, 5.390e-5
2.658e+1, 5.410e-5
2.661e+1, 5.438e-5
2.664e+1, 5.484e-5
2.667e+1, 5.524e-5
2.670e+1, 5.540e-5
2.673e+1, 5.555e-5
2.676e+1, 5.576e-5
2.679e+1, 5.644e-5
2.682e+1, 5.636e-5
2.685e+1, 5.631e-5
2.688e+1, 5.649e-5
2.691e+1, 5.666e-5
2.694e+1, 5.687e-5
2.697e+1, 5.675e-5
2.700e+1, 5.637e-5
2.703e+1, 5.659e-5
2.706e+1, 5.676e-5
2.709e+1, 5.678e-5
2.712e+1, 5.686e-5
2.715e+1, 5.678e-5
2.718e+1, 5.650e-5
2.721e+1, 5.660e-5
2.724e+1, 5.636e-5
2.727e+1, 5.579e-5
2.730e+1, 5.582e-5
2.733e+1, 5.639e-5
2.736e+1, 5.689e-5
2.739e+1, 5.696e-5
2.742e+1, 5.703e-5
2.745e+1, 5.746e-5
2.748e+1, 5.833e-5
2.751e+1, 5.874e-5
2.754e+1, 5.897e-5
2.757e+1, 5.905e-5
2.760e+1, 5.950e-5
2.763e+1, 5.968e-5
2.766e+1, 5.964e-5
2.769e+1, 5.934e-5
2.772e+1, 5.940e-5
2.775e+1, 5.975e-5
2.778e+1, 5.982e-5
2.781e+1, 5.922e-5
2.784e+1, 5.913e-5
2.787e+1, 5.926e-5
2.790e+1, 5.889e-5
2.793e+1, 5.927e-5
2.796e+1, 5.943e-5
2.799e+1, 5.976e-5
2.802e+1, 5.884e-5
2.805e+1, 5.869e-5
2.808e+1, 5.886e-5
2.811e+1, 5.916e-5
2.814e+1, 5.952e-5
2.817e+1, 5.980e-5
2.820e+1, 6.027e-5
2.823e+1, 6.067e-5
2.826e+1, 6.095e-5
2.829e+1, 6.096e-5
2.832e+1, 6.130e-5
2.835e+1, 6.126e-5
2.838e+1, 6.138e-5
2.841e+1, 6.136e-5
2.844e+1, 6.126e-5
2.847e+1, 6.140e-5
2.850e+1, 6.140e-5
2.853e+1, 6.105e-5
2.856e+1, 6.078e-5
2.859e+1, 6.131e-5
2.862e+1, 6.132e-5
2.865e+1, 6.068e-5
2.868e+1, 6.082e-5
2.871e+1, 6.041e-5
2.874e+1, 5.855e-5
2.877e+1, 5.818e-5
2.880e+1, 5.868e-5
2.883e+1, 5.941e-5
2.886e+1, 5.946e-5
2.889e+1, 5.947e-5
2.892e+1, 5.963e-5
2.895e+1, 6.029e-5
2.898e+1, 6.059e-5
2.901e+1, 6.067e-5
2.904e+1, 6.105e-5
2.907e+1, 6.150e-5
2.910e+1, 6.198e-5
2.913e+1, 6.225e-5
2.916e+1, 6.255e-5
2.919e+1, 6.251e-5
2.922e+1, 6.247e-5
2.925e+1, 6.267e-5
2.928e+1, 6.268e-5
2.931e+1, 6.271e-5
2.934e+1, 6.283e-5
2.937e+1, 6.310e-5
2.940e+1, 6.336e-5
2.943e+1, 6.326e-5
2.946e+1, 6.232e-5
2.949e+1, 6.110e-5
2.952e+1, 6.157e-5
2.955e+1, 6.186e-5
2.958e+1, 6.198e-5
2.961e+1, 6.217e-5
2.964e+1, 6.228e-5
2.967e+1, 6.245e-5
2.970e+1, 6.261e-5
2.973e+1, 6.281e-5
2.976e+1, 6.301e-5
2.979e+1, 6.315e-5
2.982e+1, 6.306e-5
2.985e+1, 6.256e-5
2.988e+1, 6.255e-5
2.991e+1, 6.249e-5
2.994e+1, 6.271e-5
2.997e+1, 6.314e-5
3.000e+1, 6.275e-5
3.003e+1, 6.346e-5
3.006e+1, 6.229e-5
3.009e+1, 6.244e-5
3.012e+1, 6.248e-5
3.015e+1, 6.286e-5
3.018e+1, 6.310e-5
3.021e+1, 6.244e-5
3.024e+1, 6.176e-5
3.027e+1, 6.195e-5
3.030e+1, 6.199e-5
3.033e+1, 6.234e-5
3.036e+1, 6.251e-5
3.039e+1, 6.275e-5
3.042e+1, 6.311e-5
3.045e+1, 6.306e-5
3.048e+1, 6.338e-5
3.051e+1, 6.340e-5
3.054e+1, 6.330e-5
3.057e+1, 6.301e-5
3.060e+1, 6.284e-5
3.063e+1, 6.281e-5
3.066e+1, 6.328e-5
3.069e+1, 6.320e-5
3.072e+1, 6.345e-5
3.075e+1, 6.340e-5
3.078e+1, 6.362e-5
3.081e+1, 6.381e-5
3.084e+1, 6.368e-5
3.087e+1, 6.343e-5
3.090e+1, 6.347e-5
3.093e+1, 6.362e-5
3.096e+1, 6.373e-5
3.099e+1, 6.348e-5
3.102e+1, 6.183e-5
3.105e+1, 6.144e-5
3.108e+1, 6.166e-5
3.111e+1, 6.195e-5
3.114e+1, 6.253e-5
3.117e+1, 6.269e-5
3.120e+1, 6.266e-5
3.123e+1, 6.313e-5
3.126e+1, 6.370e-5
3.129e+1, 6.407e-5
3.132e+1, 6.429e-5
3.135e+1, 6.443e-5
3.138e+1, 6.430e-5
3.141e+1, 6.406e-5
3.144e+1, 6.412e-5
3.147e+1, 6.428e-5
3.150e+1, 6.444e-5
3.153e+1, 6.445e-5
3.156e+1, 6.435e-5
3.159e+1, 6.420e-5
3.162e+1, 6.412e-5
3.165e+1, 6.414e-5
3.168e+1, 6.423e-5
3.171e+1, 6.431e-5
3.174e+1, 6.372e-5
3.177e+1, 6.344e-5
3.180e+1, 6.363e-5
3.183e+1, 6.385e-5
3.186e+1, 6.396e-5
3.189e+1, 6.406e-5
3.192e+1, 6.434e-5
3.195e+1, 6.443e-5
3.198e+1, 6.436e-5
3.201e+1, 6.448e-5
3.204e+1, 6.427e-5
3.207e+1, 6.438e-5
3.210e+1, 6.424e-5
3.213e+1, 6.413e-5
3.216e+1, 6.421e-5
3.219e+1, 6.405e-5
3.222e+1, 6.370e-5
3.225e+1, 6.361e-5
3.228e+1, 6.357e-5
3.231e+1, 6.349e-5
3.234e+1, 6.341e-5
3.237e+1, 6.345e-5
3.240e+1, 6.340e-5
3.243e+1, 6.344e-5
3.246e+1, 6.328e-5
3.249e+1, 6.284e-5
3.252e+1, 6.307e-5
3.255e+1, 6.395e-5
3.258e+1, 6.422e-5
3.261e+1, 6.427e-5
3.264e+1, 6.430e-5
3.267e+1, 6.454e-5
3.270e+1, 6.435e-5
3.273e+1, 6.442e-5
3.276e+1, 6.451e-5
3.279e+1, 6.446e-5
3.282e+1, 6.452e-5
3.285e+1, 6.451e-5
3.288e+1, 6.444e-5
3.291e+1, 6.437e-5
3.294e+1, 6.440e-5
3.297e+1, 6.449e-5
3.300e+1, 6.439e-5
3.303e+1, 6.443e-5
3.306e+1, 6.455e-5
3.309e+1, 6.467e-5
3.312e+1, 6.478e-5
3.315e+1, 6.474e-5
3.318e+1, 6.455e-5
3.321e+1, 6.467e-5
3.324e+1, 6.427e-5
3.327e+1, 6.370e-5
3.330e+1, 6.334e-5
3.333e+1, 6.353e-5
3.336e+1, 6.377e-5
3.339e+1, 6.380e-5
3.342e+1, 6.382e-5
3.345e+1, 6.391e-5
3.348e+1, 6.401e-5
3.351e+1, 6.420e-5
3.354e+1, 6.423e-5
3.357e+1, 6.446e-5
3.360e+1, 6.437e-5
3.363e+1, 6.432e-5
3.366e+1, 6.442e-5
3.369e+1, 6.428e-5
3.372e+1, 6.437e-5
3.375e+1, 6.437e-5
3.378e+1, 6.438e-5
3.381e+1, 6.440e-5
3.384e+1, 6.453e-5
3.387e+1, 6.469e-5
3.390e+1, 6.459e-5
3.393e+1, 6.428e-5
3.396e+1, 6.443e-5
3.399e+1, 6.413e-5
3.402e+1, 6.366e-5
3.405e+1, 6.376e-5
3.408e+1, 6.391e-5
3.411e+1, 6.420e-5
3.414e+1, 6.421e-5
3.417e+1, 6.433e-5
3.420e+1, 6.467e-5
3.423e+1, 6.470e-5
3.426e+1, 6.486e-5
3.429e+1, 6.509e-5
3.432e+1, 6.538e-5
3.435e+1, 6.560e-5
3.438e+1, 6.554e-5
3.441e+1, 6.560e-5
3.444e+1, 6.582e-5
3.447e+1, 6.547e-5
3.450e+1, 6.554e-5
3.453e+1, 6.584e-5
3.456e+1, 6.578e-5
3.459e+1, 6.568e-5
3.462e+1, 6.573e-5
3.465e+1, 6.575e-5
3.468e+1, 6.549e-5
3.471e+1, 6.557e-5
3.474e+1, 6.517e-5
3.477e+1, 6.492e-5
3.480e+1, 6.503e-5
3.483e+1, 6.560e-5
3.486e+1, 6.586e-5
3.489e+1, 6.607e-5
3.492e+1, 6.627e-5
3.495e+1, 6.627e-5
3.498e+1, 6.649e-5
3.501e+1, 6.676e-5
3.504e+1, 6.681e-5
3.507e+1, 6.701e-5
3.510e+1, 6.691e-5
3.513e+1, 6.692e-5
3.516e+1, 6.697e-5
3.519e+1, 6.700e-5
3.522e+1, 6.677e-5
3.525e+1, 6.662e-5
3.528e+1, 6.668e-5
3.531e+1, 6.667e-5
3.534e+1, 6.638e-5
3.537e+1, 6.612e-5
3.540e+1, 6.614e-5
3.543e+1, 6.618e-5
3.546e+1, 6.573e-5
3.549e+1, 6.548e-5
3.552e+1, 6.565e-5
3.555e+1, 6.614e-5
3.558e+1, 6.627e-5
3.561e+1, 6.649e-5
3.564e+1, 6.680e-5
3.567e+1, 6.669e-5
3.570e+1, 6.694e-5
3.573e+1, 6.706e-5
3.576e+1, 6.714e-5
3.579e+1, 6.711e-5
3.582e+1, 6.686e-5
3.585e+1, 6.675e-5
3.588e+1, 6.661e-5
3.591e+1, 6.651e-5
3.594e+1, 6.628e-5
3.597e+1, 6.624e-5
3.600e+1, 6.640e-5
3.603e+1, 6.640e-5
3.606e+1, 6.627e-5
3.609e+1, 6.630e-5
3.612e+1, 6.629e-5
3.615e+1, 6.624e-5
3.618e+1, 6.582e-5
3.621e+1, 6.424e-5
3.624e+1, 6.420e-5
3.627e+1, 6.450e-5
3.630e+1, 6.474e-5
3.633e+1, 6.500e-5
3.636e+1, 6.519e-5
3.639e+1, 6.538e-5
3.642e+1, 6.660e-5
3.645e+1, 6.658e-5
3.648e+1, 6.661e-5
3.651e+1, 6.684e-5
3.654e+1, 6.693e-5
3.657e+1, 6.701e-5
3.660e+1, 6.704e-5
3.663e+1, 6.697e-5
3.666e+1, 6.683e-5
3.669e+1, 6.680e-5
3.672e+1, 6.683e-5
3.675e+1, 6.694e-5
3.678e+1, 6.680e-5
3.681e+1, 6.675e-5
3.684e+1, 6.678e-5
3.687e+1, 6.681e-5
3.690e+1, 6.635e-5
3.693e+1, 6.509e-5
3.696e+1, 6.508e-5
3.699e+1, 6.515e-5
3.702e+1, 6.524e-5
3.705e+1, 6.533e-5
3.708e+1, 6.549e-5
3.711e+1, 6.561e-5
3.714e+1, 6.557e-5
3.717e+1, 6.582e-5
3.720e+1, 6.592e-5
3.723e+1, 6.573e-5
3.726e+1, 6.560e-5
3.729e+1, 6.589e-5
3.732e+1, 6.609e-5
3.735e+1, 6.649e-5
3.738e+1, 6.675e-5
3.741e+1, 6.680e-5
3.744e+1, 6.690e-5
3.747e+1, 6.677e-5
3.750e+1, 6.659e-5
3.753e+1, 6.649e-5
3.756e+1, 6.595e-5
3.759e+1, 6.559e-5
3.762e+1, 6.541e-5
3.765e+1, 6.540e-5
3.768e+1, 6.513e-5
3.771e+1, 6.515e-5
3.774e+1, 6.525e-5
3.777e+1, 6.534e-5
3.780e+1, 6.560e-5
3.783e+1, 6.576e-5
3.786e+1, 6.580e-5
3.789e+1, 6.559e-5
3.792e+1, 6.574e-5
3.795e+1, 6.584e-5
3.798e+1, 6.611e-5
3.801e+1, 6.634e-5
3.804e+1, 6.647e-5
3.807e+1, 6.664e-5
3.810e+1, 6.683e-5
3.813e+1, 6.702e-5
3.816e+1, 6.697e-5
3.819e+1, 6.700e-5
3.822e+1, 6.710e-5
3.825e+1, 6.701e-5
3.828e+1, 6.691e-5
3.831e+1, 6.718e-5
3.834e+1, 6.710e-5
3.837e+1, 6.705e-5
3.840e+1, 6.748e-5
3.843e+1, 6.789e-5
3.846e+1, 6.754e-5
3.849e+1, 6.652e-5
3.852e+1, 6.657e-5
3.855e+1, 6.679e-5
3.858e+1, 6.703e-5
3.861e+1, 6.720e-5
3.864e+1, 6.818e-5
3.867e+1, 6.817e-5
3.870e+1, 6.862e-5
3.873e+1, 6.900e-5
3.876e+1, 6.921e-5
3.879e+1, 6.937e-5
3.882e+1, 6.965e-5
3.885e+1, 6.972e-5
3.888e+1, 6.980e-5
3.891e+1, 6.997e-5
3.894e+1, 7.003e-5
3.897e+1, 7.017e-5
3.900e+1, 7.042e-5
3.903e+1, 7.045e-5
3.906e+1, 7.045e-5
3.909e+1, 7.043e-5
3.912e+1, 7.063e-5
3.915e+1, 7.044e-5
3.918e+1, 6.877e-5
3.921e+1, 6.793e-5
3.924e+1, 6.810e-5
3.927e+1, 6.838e-5
3.930e+1, 6.843e-5
3.933e+1, 6.842e-5
3.936e+1, 6.857e-5
3.939e+1, 6.900e-5
3.942e+1, 6.942e-5
3.945e+1, 7.016e-5
3.948e+1, 6.978e-5
3.951e+1, 7.020e-5
3.954e+1, 7.028e-5
3.957e+1, 7.048e-5
3.960e+1, 7.071e-5
3.963e+1, 7.057e-5
3.966e+1, 7.059e-5
3.969e+1, 7.066e-5
3.972e+1, 7.105e-5
3.975e+1, 7.129e-5
3.978e+1, 7.140e-5
3.981e+1, 7.023e-5
3.984e+1, 7.044e-5
3.987e+1, 7.119e-5
3.990e+1, 7.057e-5
3.993e+1, 7.178e-5
3.996e+1, 7.155e-5
3.999e+1, 7.190e-5
4.002e+1, 7.199e-5
4.005e+1, 7.226e-5
4.008e+1, 7.237e-5
4.011e+1, 7.228e-5
4.014e+1, 7.265e-5
4.017e+1, 7.269e-5
4.020e+1, 7.274e-5
4.023e+1, 7.270e-5
4.026e+1, 7.242e-5
4.029e+1, 7.199e-5
4.032e+1, 7.192e-5
4.035e+1, 7.174e-5
4.038e+1, 7.151e-5
4.041e+1, 7.155e-5
4.044e+1, 7.179e-5
4.047e+1, 7.168e-5
4.050e+1, 7.177e-5
4.053e+1, 7.158e-5
4.056e+1, 7.160e-5
4.059e+1, 7.157e-5
4.062e+1, 7.111e-5
4.065e+1, 7.152e-5
4.068e+1, 7.201e-5
4.071e+1, 7.199e-5
4.074e+1, 7.194e-5
4.077e+1, 7.224e-5
4.080e+1, 7.230e-5
4.083e+1, 7.219e-5
4.086e+1, 7.228e-5
4.089e+1, 7.246e-5
4.092e+1, 7.259e-5
4.095e+1, 7.256e-5
4.098e+1, 7.243e-5
4.101e+1, 7.249e-5
4.104e+1, 7.232e-5
4.107e+1, 7.220e-5
4.110e+1, 7.239e-5
4.113e+1, 7.228e-5
4.116e+1, 7.217e-5
4.119e+1, 7.207e-5
4.122e+1, 7.212e-5
4.125e+1, 7.197e-5
4.128e+1, 7.173e-5
4.131e+1, 7.172e-5
4.134e+1, 7.189e-5
4.137e+1, 7.192e-5
4.140e+1, 7.192e-5
4.143e+1, 7.212e-5
4.146e+1, 7.220e-5
4.149e+1, 7.220e-5
4.152e+1, 7.229e-5
4.155e+1, 7.218e-5
4.158e+1, 7.210e-5
4.161e+1, 7.228e-5
4.164e+1, 7.259e-5
4.167e+1, 7.243e-5
4.170e+1, 7.196e-5
4.173e+1, 7.189e-5
4.176e+1, 7.183e-5
4.179e+1, 7.166e-5
4.182e+1, 7.161e-5
4.185e+1, 7.179e-5
4.188e+1, 7.192e-5
4.191e+1, 7.201e-5
4.194e+1, 7.206e-5
4.197e+1, 7.207e-5
4.200e+1, 7.184e-5
4.203e+1, 7.161e-5
4.206e+1, 7.118e-5
4.209e+1, 7.124e-5
4.212e+1, 7.159e-5
4.215e+1, 7.191e-5
4.218e+1, 7.204e-5
4.221e+1, 7.205e-5
4.224e+1, 7.223e-5
4.227e+1, 7.216e-5
4.230e+1, 7.224e-5
4.233e+1, 7.267e-5
4.236e+1, 7.297e-5
4.239e+1, 7.304e-5
4.242e+1, 7.310e-5
4.245e+1, 7.268e-5
4.248e+1, 7.209e-5
4.251e+1, 7.212e-5
4.254e+1, 7.220e-5
4.257e+1, 7.216e-5
4.260e+1, 7.234e-5
4.263e+1, 7.265e-5
4.266e+1, 7.284e-5
4.269e+1, 7.304e-5
4.272e+1, 7.299e-5
4.275e+1, 7.311e-5
4.278e+1, 7.323e-5
4.281e+1, 7.276e-5
4.284e+1, 7.280e-5
4.287e+1, 7.314e-5
4.290e+1, 7.326e-5
4.293e+1, 7.369e-5
4.296e+1, 7.383e-5
4.299e+1, 7.374e-5
4.302e+1, 7.404e-5
4.305e+1, 7.420e-5
4.308e+1, 7.433e-5
4.311e+1, 7.434e-5
4.314e+1, 7.381e-5
4.317e+1, 7.369e-5
4.320e+1, 7.377e-5
4.323e+1, 7.360e-5
4.326e+1, 7.364e-5
4.329e+1, 7.346e-5
4.332e+1, 7.332e-5
4.335e+1, 7.349e-5
4.338e+1, 7.363e-5
4.341e+1, 7.378e-5
4.344e+1, 7.365e-5
4.347e+1, 7.371e-5
4.350e+1, 7.354e-5
4.353e+1, 7.298e-5
4.356e+1, 7.298e-5
4.359e+1, 7.317e-5
4.362e+1, 7.321e-5
4.365e+1, 7.331e-5
4.368e+1, 7.349e-5
4.371e+1, 7.345e-5
4.374e+1, 7.332e-5
4.377e+1, 7.362e-5
4.380e+1, 7.358e-5
4.383e+1, 7.366e-5
4.386e+1, 7.347e-5
4.389e+1, 7.306e-5
4.392e+1, 7.270e-5
4.395e+1, 7.259e-5
4.398e+1, 7.252e-5
4.401e+1, 7.239e-5
4.404e+1, 7.222e-5
4.407e+1, 7.233e-5
4.410e+1, 7.230e-5
4.413e+1, 7.231e-5
4.416e+1, 7.222e-5
4.419e+1, 7.220e-5
4.422e+1, 7.216e-5
4.425e+1, 7.181e-5
4.428e+1, 7.167e-5
4.431e+1, 7.200e-5
4.434e+1, 7.239e-5
4.437e+1, 7.271e-5
4.440e+1, 7.272e-5
4.443e+1, 7.280e-5
4.446e+1, 7.247e-5
4.449e+1, 7.249e-5
4.452e+1, 7.286e-5
4.455e+1, 7.301e-5
4.458e+1, 7.319e-5
4.461e+1, 7.360e-5
4.464e+1, 7.374e-5
4.467e+1, 7.378e-5
4.470e+1, 7.384e-5
4.473e+1, 7.414e-5
4.476e+1, 7.399e-5
