July 5, 2024   00:15:42
Amperometric i-t Curve
File: 1111
Data Source:  Experiment
Instrument Model:  CHI760E
Header: 
Note: 

Init E (V) = 0.3
Sample Interval (s) = 0.05
Run Time (sec) = 4e+3
Quiet Time (sec) = 0
Sensitivity (A/V) = 1e-4

Results:

Channel 1:

Time/sec, Current/A

5.000e-2, 4.884e-5
1.000e-1, 2.676e-5
1.500e-1, 2.218e-5
2.000e-1, 6.607e-5
2.500e-1, 1.315e-5
3.000e-1, 3.133e-5
3.500e-1, 2.725e-7
4.000e-1, 3.803e-7
4.500e-1, 5.788e-5
5.000e-1, 7.072e-5
5.500e-1, 7.466e-5
6.000e-1, 6.493e-5
6.500e-1, 5.601e-5
7.000e-1, 2.672e-5
7.500e-1, 5.698e-5
8.000e-1, 2.461e-5
8.500e-1, 5.400e-5
9.000e-1, 7.120e-5
9.500e-1, 6.827e-5
1.000e+0, 6.439e-5
1.050e+0, 5.699e-5
1.100e+0, 4.883e-5
1.150e+0, 4.566e-5
1.200e+0, 4.534e-5
1.250e+0, 4.316e-5
1.300e+0, 3.912e-5
1.350e+0, 3.674e-5
1.400e+0, 4.066e-5
1.450e+0, 1.413e-5
1.500e+0, 3.895e-5
1.550e+0, 4.185e-5
1.600e+0, 4.246e-5
1.650e+0, 4.269e-5
1.700e+0, 4.323e-5
1.750e+0, 4.380e-5
1.800e+0, 4.393e-5
1.850e+0, 4.310e-5
1.900e+0, 4.312e-5
1.950e+0, 4.292e-5
2.000e+0, 4.283e-5
2.050e+0, 4.297e-5
2.100e+0, 4.230e-5
2.150e+0, 4.229e-5
2.200e+0, 4.214e-5
2.250e+0, 4.235e-5
2.300e+0, 4.255e-5
2.350e+0, 4.040e-5
2.400e+0, 2.093e-5
2.450e+0, 9.391e-7
2.500e+0, 8.053e-7
2.550e+0, 3.258e-5
2.600e+0, 3.208e-5
2.650e+0, 3.106e-5
2.700e+0, 3.170e-5
2.750e+0, 2.950e-5
2.800e+0, 2.424e-5
2.850e+0, 2.117e-5
2.900e+0, 1.905e-5
2.950e+0, 1.985e-5
3.000e+0, 2.119e-5
3.050e+0, 2.049e-5
3.100e+0, 2.090e-5
3.150e+0, 2.129e-5
3.200e+0, 2.098e-5
3.250e+0, 2.053e-5
3.300e+0, 2.053e-5
3.350e+0, 2.117e-5
3.400e+0, 2.153e-5
3.450e+0, 2.123e-5
3.500e+0, 2.203e-5
3.550e+0, 2.257e-5
3.600e+0, 2.277e-5
3.650e+0, 2.297e-5
3.700e+0, 2.301e-5
3.750e+0, 2.322e-5
3.800e+0, 2.287e-5
3.850e+0, 2.229e-5
3.900e+0, 2.302e-5
3.950e+0, 2.225e-5
4.000e+0, 2.138e-5
4.050e+0, 2.127e-5
4.100e+0, 2.089e-5
4.150e+0, 2.073e-5
4.200e+0, 2.057e-5
4.250e+0, 2.121e-5
4.300e+0, 2.214e-5
4.350e+0, 2.110e-5
4.400e+0, 2.075e-5
4.450e+0, 2.050e-5
4.500e+0, 1.937e-5
4.550e+0, 1.900e-5
4.600e+0, 1.904e-5
4.650e+0, 1.819e-5
4.700e+0, 1.821e-5
4.750e+0, 1.892e-5
4.800e+0, 1.930e-5
4.850e+0, 1.912e-5
4.900e+0, 1.861e-5
4.950e+0, 1.846e-5
5.000e+0, 1.757e-5
5.050e+0, 1.810e-5
5.100e+0, 1.846e-5
5.150e+0, 1.840e-5
5.200e+0, 1.820e-5
5.250e+0, 1.860e-5
5.300e+0, 1.890e-5
5.350e+0, 1.984e-5
5.400e+0, 2.037e-5
5.450e+0, 2.025e-5
5.500e+0, 2.044e-5
5.550e+0, 2.069e-5
5.600e+0, 2.065e-5
5.650e+0, 1.974e-5
5.700e+0, 2.005e-5
5.750e+0, 2.071e-5
5.800e+0, 2.016e-5
5.850e+0, 1.997e-5
5.900e+0, 2.075e-5
5.950e+0, 2.046e-5
6.000e+0, 2.149e-5
6.050e+0, 2.145e-5
6.100e+0, 2.106e-5
6.150e+0, 2.081e-5
6.200e+0, 2.055e-5
6.250e+0, 2.077e-5
6.300e+0, 2.152e-5
6.350e+0, 2.238e-5
6.400e+0, 2.206e-5
6.450e+0, 2.216e-5
6.500e+0, 1.884e-5
6.550e+0, 1.579e-5
6.600e+0, 1.569e-5
6.650e+0, 1.502e-5
6.700e+0, 1.473e-5
6.750e+0, 1.529e-5
6.800e+0, 1.582e-5
6.850e+0, 1.654e-5
6.900e+0, 1.729e-5
6.950e+0, 1.739e-5
7.000e+0, 1.664e-5
7.050e+0, 1.668e-5
7.100e+0, 1.649e-5
7.150e+0, 1.743e-5
7.200e+0, 1.569e-5
7.250e+0, 1.464e-5
7.300e+0, 1.604e-5
7.350e+0, 1.670e-5
7.400e+0, 1.212e-5
7.450e+0, 9.869e-6
7.500e+0, 1.015e-5
7.550e+0, 1.020e-5
7.600e+0, 1.062e-5
7.650e+0, 1.086e-5
7.700e+0, 1.098e-5
7.750e+0, 1.114e-5
7.800e+0, 1.132e-5
7.850e+0, 1.174e-5
7.900e+0, 1.073e-5
7.950e+0, 1.075e-5
8.000e+0, 1.199e-5
8.050e+0, 8.119e-6
8.100e+0, 8.419e-6
8.150e+0, 8.912e-6
8.200e+0, 1.211e-5
8.250e+0, 1.440e-5
8.300e+0, 1.405e-5
8.350e+0, 1.474e-5
8.400e+0, 1.148e-5
8.450e+0, 9.254e-6
8.500e+0, 7.647e-6
8.550e+0, 7.552e-6
8.600e+0, 6.832e-6
8.650e+0, 7.568e-6
8.700e+0, 6.480e-6
8.750e+0, 4.540e-6
8.800e+0, 4.926e-6
8.850e+0, 4.684e-6
8.900e+0, 5.098e-6
8.950e+0, 3.030e-6
9.000e+0, 3.100e-6
9.050e+0, 2.170e-6
9.100e+0, 3.896e-6
9.150e+0, 1.734e-6
9.200e+0, 2.358e-6
9.250e+0, 4.517e-6
9.300e+0, 5.588e-6
9.350e+0, 6.787e-6
9.400e+0, 7.362e-6
9.450e+0, 7.660e-6
9.500e+0, 8.089e-6
9.550e+0, 8.815e-6
9.600e+0, 8.649e-6
9.650e+0, 9.337e-6
9.700e+0, 1.048e-5
9.750e+0, 1.238e-5
9.800e+0, 1.458e-5
9.850e+0, 1.746e-5
9.900e+0, 1.056e-5
9.950e+0, 6.093e-6
1.000e+1, 8.283e-6
1.005e+1, 1.776e-5
1.010e+1, 2.141e-5
1.015e+1, 2.392e-5
1.020e+1, 2.468e-5
1.025e+1, 7.550e-6
1.030e+1, 1.875e-5
1.035e+1, 2.245e-5
1.040e+1, 2.324e-5
1.045e+1, 2.451e-5
1.050e+1, 2.734e-5
1.055e+1, 2.993e-5
1.060e+1, 3.390e-5
1.065e+1, 3.538e-5
1.070e+1, 3.579e-5
1.075e+1, 3.587e-5
1.080e+1, 3.590e-5
1.085e+1, 3.530e-5
1.090e+1, 3.639e-5
1.095e+1, 3.765e-5
1.100e+1, 3.833e-5
1.105e+1, 3.814e-5
1.110e+1, 3.746e-5
1.115e+1, 3.744e-5
1.120e+1, 3.847e-5
1.125e+1, 3.815e-5
1.130e+1, 3.856e-5
1.135e+1, 3.877e-5
1.140e+1, 3.918e-5
1.145e+1, 3.982e-5
1.150e+1, 3.944e-5
1.155e+1, 3.959e-5
1.160e+1, 4.040e-5
1.165e+1, 4.157e-5
1.170e+1, 4.240e-5
1.175e+1, 4.309e-5
1.180e+1, 4.425e-5
1.185e+1, 4.420e-5
1.190e+1, 4.473e-5
1.195e+1, 4.487e-5
1.200e+1, 4.497e-5
1.205e+1, 4.428e-5
1.210e+1, 4.385e-5
1.215e+1, 4.425e-5
1.220e+1, 3.392e-5
1.225e+1, 3.886e-5
1.230e+1, 4.548e-5
1.235e+1, 4.649e-5
1.240e+1, 4.820e-5
1.245e+1, 4.991e-5
1.250e+1, 5.052e-5
1.255e+1, 5.279e-5
1.260e+1, 5.408e-5
1.265e+1, 5.406e-5
1.270e+1, 5.408e-5
1.275e+1, 5.436e-5
1.280e+1, 5.615e-5
1.285e+1, 5.801e-5
1.290e+1, 6.055e-5
1.295e+1, 4.798e-6
1.300e+1, 5.728e-5
1.305e+1, 6.147e-5
1.310e+1, 6.200e-5
1.315e+1, 6.302e-5
1.320e+1, 6.355e-5
1.325e+1, 6.326e-5
1.330e+1, 6.378e-5
1.335e+1, 6.516e-5
1.340e+1, 6.582e-5
1.345e+1, 6.634e-5
1.350e+1, 6.701e-5
1.355e+1, 6.755e-5
1.360e+1, 6.804e-5
1.365e+1, 6.873e-5
1.370e+1, 6.954e-5
1.375e+1, 7.047e-5
1.380e+1, 7.180e-5
1.385e+1, 7.248e-5
1.390e+1, 7.287e-5
1.395e+1, 7.311e-5
1.400e+1, 7.265e-5
1.405e+1, 7.360e-5
1.410e+1, 7.427e-5
1.415e+1, 7.475e-5
1.420e+1, 7.561e-5
1.425e+1, 7.651e-5
1.430e+1, 7.715e-5
1.435e+1, 7.751e-5
1.440e+1, 7.815e-5
1.445e+1, 7.889e-5
1.450e+1, 7.929e-5
1.455e+1, 7.999e-5
1.460e+1, 8.060e-5
1.465e+1, 8.118e-5
1.470e+1, 8.110e-5
1.475e+1, 8.162e-5
1.480e+1, 8.210e-5
1.485e+1, 8.315e-5
1.490e+1, 8.405e-5
1.495e+1, 8.482e-5
1.500e+1, 8.509e-5
1.505e+1, 8.544e-5
1.510e+1, 8.588e-5
1.515e+1, 8.569e-5
1.520e+1, 8.617e-5
1.525e+1, 8.699e-5
1.530e+1, 8.712e-5
1.535e+1, 8.724e-5
1.540e+1, 8.777e-5
1.545e+1, 8.791e-5
1.550e+1, 8.885e-5
1.555e+1, 8.931e-5
1.560e+1, 8.986e-5
1.565e+1, 9.067e-5
1.570e+1, 9.046e-5
1.575e+1, 8.897e-5
1.580e+1, 8.991e-5
1.585e+1, 9.157e-5
1.590e+1, 9.243e-5
1.595e+1, 9.264e-5
1.600e+1, 9.307e-5
1.605e+1, 9.274e-5
1.610e+1, 9.277e-5
1.615e+1, 9.285e-5
1.620e+1, 9.313e-5
1.625e+1, 9.380e-5
1.630e+1, 9.454e-5
1.635e+1, 9.502e-5
1.640e+1, 9.526e-5
1.645e+1, 9.568e-5
1.650e+1, 9.597e-5
1.655e+1, 9.608e-5
1.660e+1, 9.641e-5
1.665e+1, 9.654e-5
1.670e+1, 9.680e-5
1.675e+1, 9.776e-5
1.680e+1, 9.867e-5
1.685e+1, 9.897e-5
1.690e+1, 9.903e-5
1.695e+1, 9.980e-5
1.700e+1, 1.005e-4
1.705e+1, 1.017e-4
1.710e+1, 1.024e-4
1.715e+1, 1.030e-4
1.720e+1, 1.034e-4
1.725e+1, 1.039e-4
1.730e+1, 1.040e-4
1.735e+1, 1.041e-4
1.740e+1, 1.046e-4
1.745e+1, 1.047e-4
1.750e+1, 1.048e-4
1.755e+1, 1.051e-4
1.760e+1, 1.050e-4
1.765e+1, 1.054e-4
1.770e+1, 1.053e-4
1.775e+1, 1.056e-4
1.780e+1, 1.048e-4
1.785e+1, 1.019e-4
1.790e+1, 1.023e-4
1.795e+1, 1.042e-4
1.800e+1, 1.031e-4
1.805e+1, 1.020e-4
1.810e+1, 9.976e-5
1.815e+1, 9.946e-5
1.820e+1, 1.014e-4
1.825e+1, 1.039e-4
1.830e+1, 1.053e-4
1.835e+1, 1.063e-4
1.840e+1, 1.073e-4
1.845e+1, 1.080e-4
1.850e+1, 1.079e-4
1.855e+1, 1.082e-4
1.860e+1, 1.083e-4
1.865e+1, 1.042e-4
1.870e+1, 1.036e-4
1.875e+1, 1.070e-4
1.880e+1, 1.064e-4
1.885e+1, 1.018e-4
1.890e+1, 1.055e-4
1.895e+1, 1.036e-4
1.900e+1, 1.081e-4
1.905e+1, 1.105e-4
1.910e+1, 1.110e-4
1.915e+1, 1.109e-4
1.920e+1, 1.111e-4
1.925e+1, 1.114e-4
1.930e+1, 1.113e-4
1.935e+1, 1.113e-4
1.940e+1, 1.094e-4
1.945e+1, 9.573e-5
1.950e+1, 8.851e-5
1.955e+1, 9.558e-5
1.960e+1, 1.073e-4
1.965e+1, 1.097e-4
1.970e+1, 1.092e-4
1.975e+1, 1.080e-4
1.980e+1, 1.103e-4
1.985e+1, 1.107e-4
1.990e+1, 1.117e-4
1.995e+1, 1.117e-4
2.000e+1, 1.131e-4
2.005e+1, 1.138e-4
2.010e+1, 1.144e-4
2.015e+1, 1.145e-4
2.020e+1, 1.147e-4
2.025e+1, 1.148e-4
2.030e+1, 1.152e-4
2.035e+1, 1.158e-4
2.040e+1, 1.153e-4
2.045e+1, 1.129e-4
2.050e+1, 1.066e-4
2.055e+1, 1.046e-4
2.060e+1, 1.106e-4
2.065e+1, 1.106e-4
2.070e+1, 1.108e-4
2.075e+1, 1.113e-4
2.080e+1, 1.125e-4
2.085e+1, 1.149e-4
2.090e+1, 1.153e-4
2.095e+1, 1.015e-4
2.100e+1, 9.963e-5
2.105e+1, 9.986e-5
2.110e+1, 1.006e-4
2.115e+1, 1.007e-4
2.120e+1, 1.011e-4
2.125e+1, 1.014e-4
2.130e+1, 1.013e-4
2.135e+1, 1.013e-4
2.140e+1, 1.012e-4
2.145e+1, 1.003e-4
2.150e+1, 1.000e-4
2.155e+1, 9.878e-5
2.160e+1, 9.717e-5
2.165e+1, 8.413e-5
2.170e+1, 1.612e-5
2.175e+1, 1.575e-5
2.180e+1, 1.603e-5
2.185e+1, 1.502e-5
2.190e+1, 1.385e-5
2.195e+1, 1.392e-5
2.200e+1, 1.384e-5
2.205e+1, 1.363e-5
2.210e+1, 1.317e-5
2.215e+1, 1.325e-5
2.220e+1, 1.324e-5
2.225e+1, 1.337e-5
2.230e+1, 1.370e-5
2.235e+1, 1.339e-5
2.240e+1, 1.332e-5
2.245e+1, 1.361e-5
2.250e+1, 1.404e-5
2.255e+1, 1.423e-5
2.260e+1, 1.418e-5
2.265e+1, 1.369e-5
2.270e+1, 1.422e-5
2.275e+1, 1.427e-5
2.280e+1, 1.397e-5
2.285e+1, 1.372e-5
2.290e+1, 1.377e-5
2.295e+1, 1.358e-5
2.300e+1, 1.350e-5
2.305e+1, 7.166e-5
2.310e+1, 4.272e-5
2.315e+1, 6.000e-5
2.320e+1, 2.752e-5
2.325e+1, 2.057e-5
2.330e+1, 7.964e-5
2.335e+1, 9.818e-5
2.340e+1, 8.803e-5
2.345e+1, 7.978e-5
2.350e+1, 7.423e-5
2.355e+1, 6.916e-5
2.360e+1, 2.402e-5
2.365e+1, 2.280e-7
2.370e+1, 3.023e-6
2.375e+1, 1.460e-5
2.380e+1, 3.588e-5
2.385e+1, 2.017e-5
2.390e+1, 1.796e-5
2.395e+1, 9.057e-6
2.400e+1, 6.182e-6
2.405e+1, 2.557e-6
2.410e+1, 4.334e-6
2.415e+1, 3.175e-6
2.420e+1, 3.235e-6
2.425e+1, 6.226e-6
2.430e+1, 4.551e-6
2.435e+1, 3.884e-6
2.440e+1, 4.425e-6
2.445e+1, 4.774e-6
2.450e+1, 4.601e-6
2.455e+1, 3.342e-6
2.460e+1, 3.414e-6
2.465e+1, 5.693e-6
2.470e+1, 8.417e-6
2.475e+1, 8.724e-6
2.480e+1, 4.047e-6
2.485e+1, 3.199e-6
2.490e+1, 1.899e-6
2.495e+1, 3.184e-6
2.500e+1, 3.509e-6
2.505e+1, 3.133e-6
2.510e+1, 2.959e-6
2.515e+1, 2.696e-6
2.520e+1, 2.109e-6
2.525e+1, 1.415e-6
2.530e+1, 1.661e-6
2.535e+1, 1.453e-6
2.540e+1, 1.036e-6
2.545e+1, 8.211e-7
2.550e+1, 5.194e-7
2.555e+1, 1.076e-7
2.560e+1, 4.402e-7
2.565e+1, 5.524e-7
2.570e+1, 4.400e-7
2.575e+1, 2.068e-7
2.580e+1, 1.279e-7
2.585e+1, 8.794e-8
2.590e+1, 1.230e-7
2.595e+1, 1.114e-7
2.600e+1, 1.128e-7
2.605e+1, 1.156e-7
2.610e+1, 1.097e-7
2.615e+1, 2.430e-7
2.620e+1, 8.942e-7
2.625e+1, 1.267e-6
2.630e+1, 1.219e-6
2.635e+1, 2.820e-6
2.640e+1, 2.744e-6
2.645e+1, 1.956e-6
2.650e+1, 2.209e-6
2.655e+1, 1.462e-6
2.660e+1, 9.926e-7
2.665e+1, 1.977e-6
2.670e+1, 1.578e-6
2.675e+1, 7.246e-7
2.680e+1, 9.011e-7
2.685e+1, 4.790e-7
2.690e+1, 9.157e-7
2.695e+1, 1.536e-6
2.700e+1, 1.836e-7
2.705e+1, 1.106e-7
2.710e+1, 1.169e-7
2.715e+1, 4.273e-7
2.720e+1, 5.012e-7
2.725e+1, 7.939e-7
2.730e+1, 1.055e-6
2.735e+1, 3.296e-6
2.740e+1, 1.115e-6
2.745e+1, 4.995e-7
2.750e+1, 3.034e-7
2.755e+1, 2.044e-7
2.760e+1, 3.453e-7
2.765e+1, 6.055e-7
2.770e+1, 5.296e-7
2.775e+1, 8.078e-7
2.780e+1, 9.089e-7
2.785e+1, 9.801e-7
2.790e+1, 7.731e-7
2.795e+1, 7.120e-7
2.800e+1, 1.121e-6
2.805e+1, 1.276e-6
2.810e+1, 1.232e-6
2.815e+1, 1.577e-6
2.820e+1, 3.279e-6
2.825e+1, 4.545e-6
2.830e+1, 4.318e-6
2.835e+1, 1.003e-5
2.840e+1, 1.424e-5
2.845e+1, 1.700e-5
2.850e+1, 1.955e-5
2.855e+1, 2.201e-5
2.860e+1, 2.502e-5
2.865e+1, 2.741e-5
2.870e+1, 2.918e-5
2.875e+1, 3.143e-5
2.880e+1, 3.217e-5
2.885e+1, 2.947e-5
2.890e+1, 3.179e-5
2.895e+1, 3.781e-5
2.900e+1, 3.796e-5
2.905e+1, 4.034e-5
2.910e+1, 4.161e-5
2.915e+1, 4.270e-5
2.920e+1, 4.553e-5
2.925e+1, 4.662e-5
2.930e+1, 4.845e-5
2.935e+1, 5.005e-5
2.940e+1, 5.164e-5
2.945e+1, 5.229e-5
2.950e+1, 5.239e-5
2.955e+1, 5.298e-5
2.960e+1, 5.315e-5
2.965e+1, 5.360e-5
2.970e+1, 5.523e-5
2.975e+1, 5.585e-5
2.980e+1, 5.729e-5
2.985e+1, 5.810e-5
2.990e+1, 5.926e-5
2.995e+1, 2.083e-5
3.000e+1, 3.592e-5
3.005e+1, 6.044e-5
3.010e+1, 5.676e-5
3.015e+1, 6.321e-5
3.020e+1, 6.411e-5
3.025e+1, 6.609e-5
3.030e+1, 6.626e-5
3.035e+1, 6.735e-5
3.040e+1, 6.937e-5
3.045e+1, 6.931e-5
3.050e+1, 6.850e-5
3.055e+1, 6.583e-5
3.060e+1, 6.671e-5
3.065e+1, 6.788e-5
3.070e+1, 6.929e-5
3.075e+1, 7.017e-5
3.080e+1, 7.100e-5
3.085e+1, 7.149e-5
3.090e+1, 7.193e-5
3.095e+1, 7.258e-5
3.100e+1, 7.334e-5
3.105e+1, 7.447e-5
3.110e+1, 7.525e-5
3.115e+1, 7.622e-5
3.120e+1, 6.968e-5
3.125e+1, 8.626e-6
3.130e+1, 2.958e-7
3.135e+1, 2.881e-7
3.140e+1, 2.717e-7
3.145e+1, 2.803e-7
3.150e+1, 2.694e-7
3.155e+1, 2.763e-7
3.160e+1, 2.827e-7
3.165e+1, 2.902e-7
3.170e+1, 2.854e-7
3.175e+1, 2.989e-7
3.180e+1, 2.113e-7
3.185e+1, 2.069e-7
3.190e+1, 2.899e-7
3.195e+1, 1.073e-5
3.200e+1, 4.543e-6
3.205e+1, 4.028e-5
3.210e+1, 5.601e-5
3.215e+1, 6.679e-5
3.220e+1, 3.149e-5
3.225e+1, 1.443e-5
3.230e+1, 4.278e-5
3.235e+1, 8.641e-5
3.240e+1, 5.182e-5
3.245e+1, 5.906e-5
3.250e+1, 1.041e-4
3.255e+1, 1.077e-4
3.260e+1, 3.789e-5
3.265e+1, 2.216e-5
3.270e+1, 2.201e-5
3.275e+1, 2.991e-5
3.280e+1, 3.401e-6
3.285e+1, 1.902e-5
3.290e+1, 1.008e-4
3.295e+1, 7.595e-5
3.300e+1, 1.079e-4
3.305e+1, 7.966e-5
3.310e+1, 9.008e-5
3.315e+1, 6.888e-5
3.320e+1, 9.166e-5
3.325e+1, 7.966e-5
3.330e+1, 8.099e-5
3.335e+1, 8.317e-5
3.340e+1, 7.665e-5
