July 5, 2024   17:28:17
Amperometric i-t Curve
File: 3
Data Source:  Experiment
Instrument Model:  CHI760E
Header: 
Note: 

Init E (V) = 0.1
Sample Interval (s) = 0.02
Run Time (sec) = 4e+3
Quiet Time (sec) = 0
Sensitivity (A/V) = 1e-5

Results:

Channel 1:

Time/sec, Current/A

2.000e-2, 2.905e-6
4.000e-2, 2.913e-6
6.000e-2, 2.911e-6
8.000e-2, 2.924e-6
1.000e-1, 2.930e-6
1.200e-1, 2.918e-6
1.400e-1, 2.908e-6
1.600e-1, 2.906e-6
1.800e-1, 2.905e-6
2.000e-1, 2.896e-6
2.200e-1, 2.898e-6
2.400e-1, 2.907e-6
2.600e-1, 2.908e-6
2.800e-1, 2.921e-6
3.000e-1, 2.932e-6
3.200e-1, 2.951e-6
3.400e-1, 2.933e-6
3.600e-1, 2.917e-6
3.800e-1, 2.876e-6
4.000e-1, 2.892e-6
4.200e-1, 2.900e-6
4.400e-1, 2.880e-6
4.600e-1, 2.918e-6
4.800e-1, 2.968e-6
5.000e-1, 2.975e-6
5.200e-1, 3.043e-6
5.400e-1, 3.031e-6
5.600e-1, 3.051e-6
5.800e-1, 3.146e-6
6.000e-1, 3.200e-6
6.200e-1, 3.207e-6
6.400e-1, 3.221e-6
6.600e-1, 3.196e-6
6.800e-1, 3.195e-6
7.000e-1, 3.207e-6
7.200e-1, 3.198e-6
7.400e-1, 3.188e-6
7.600e-1, 3.193e-6
7.800e-1, 3.134e-6
8.000e-1, 3.080e-6
8.200e-1, 3.092e-6
8.400e-1, 3.088e-6
8.600e-1, 3.091e-6
8.800e-1, 3.113e-6
9.000e-1, 3.088e-6
9.200e-1, 3.085e-6
9.400e-1, 3.088e-6
9.600e-1, 3.089e-6
9.800e-1, 3.085e-6
1.000e+0, 3.089e-6
1.020e+0, 3.107e-6
1.040e+0, 3.127e-6
1.060e+0, 3.203e-6
1.080e+0, 3.220e-6
1.100e+0, 3.225e-6
1.120e+0, 3.226e-6
1.140e+0, 3.219e-6
1.160e+0, 3.193e-6
1.180e+0, 3.169e-6
1.200e+0, 3.185e-6
1.220e+0, 3.176e-6
1.240e+0, 3.156e-6
1.260e+0, 3.160e-6
1.280e+0, 3.152e-6
1.300e+0, 3.295e-6
1.320e+0, 3.367e-6
1.340e+0, 3.455e-6
1.360e+0, 3.498e-6
1.380e+0, 3.506e-6
1.400e+0, 3.505e-6
1.420e+0, 3.490e-6
1.440e+0, 3.488e-6
1.460e+0, 3.489e-6
1.480e+0, 3.479e-6
1.500e+0, 3.455e-6
1.520e+0, 3.448e-6
1.540e+0, 3.464e-6
1.560e+0, 3.468e-6
1.580e+0, 3.487e-6
1.600e+0, 3.496e-6
1.620e+0, 3.549e-6
1.640e+0, 3.553e-6
1.660e+0, 3.562e-6
1.680e+0, 3.587e-6
1.700e+0, 3.584e-6
1.720e+0, 3.533e-6
1.740e+0, 3.529e-6
1.760e+0, 3.528e-6
1.780e+0, 3.534e-6
1.800e+0, 3.526e-6
1.820e+0, 3.521e-6
1.840e+0, 3.520e-6
1.860e+0, 3.519e-6
1.880e+0, 3.524e-6
1.900e+0, 3.521e-6
1.920e+0, 3.524e-6
1.940e+0, 3.515e-6
1.960e+0, 3.468e-6
1.980e+0, 3.404e-6
2.000e+0, 3.408e-6
2.020e+0, 3.425e-6
2.040e+0, 3.601e-6
2.060e+0, 3.712e-6
2.080e+0, 3.719e-6
2.100e+0, 3.730e-6
2.120e+0, 3.782e-6
2.140e+0, 3.788e-6
2.160e+0, 3.786e-6
2.180e+0, 3.772e-6
2.200e+0, 3.768e-6
2.220e+0, 3.773e-6
2.240e+0, 3.756e-6
2.260e+0, 3.724e-6
2.280e+0, 3.733e-6
2.300e+0, 3.730e-6
2.320e+0, 3.731e-6
2.340e+0, 3.735e-6
2.360e+0, 3.730e-6
2.380e+0, 3.730e-6
2.400e+0, 3.717e-6
2.420e+0, 3.687e-6
2.440e+0, 3.682e-6
2.460e+0, 3.689e-6
2.480e+0, 3.629e-6
2.500e+0, 3.617e-6
2.520e+0, 3.606e-6
2.540e+0, 3.599e-6
2.560e+0, 3.600e-6
2.580e+0, 3.599e-6
2.600e+0, 3.593e-6
2.620e+0, 3.612e-6
2.640e+0, 3.619e-6
2.660e+0, 3.598e-6
2.680e+0, 3.558e-6
2.700e+0, 3.548e-6
2.720e+0, 3.535e-6
2.740e+0, 3.535e-6
2.760e+0, 3.523e-6
2.780e+0, 3.480e-6
2.800e+0, 3.483e-6
2.820e+0, 3.519e-6
2.840e+0, 3.657e-6
2.860e+0, 3.734e-6
2.880e+0, 3.802e-6
2.900e+0, 3.854e-6
2.920e+0, 3.865e-6
2.940e+0, 3.870e-6
2.960e+0, 3.880e-6
2.980e+0, 3.889e-6
3.000e+0, 3.886e-6
3.020e+0, 3.884e-6
3.040e+0, 3.867e-6
3.060e+0, 3.797e-6
3.080e+0, 3.751e-6
3.100e+0, 3.736e-6
3.120e+0, 3.753e-6
3.140e+0, 3.798e-6
3.160e+0, 3.756e-6
3.180e+0, 3.715e-6
3.200e+0, 3.727e-6
3.220e+0, 3.777e-6
3.240e+0, 3.770e-6
3.260e+0, 3.756e-6
3.280e+0, 3.762e-6
3.300e+0, 3.789e-6
3.320e+0, 3.828e-6
3.340e+0, 3.829e-6
3.360e+0, 3.837e-6
3.380e+0, 3.819e-6
3.400e+0, 3.776e-6
3.420e+0, 3.719e-6
3.440e+0, 3.538e-6
3.460e+0, 3.414e-6
3.480e+0, 3.381e-6
3.500e+0, 3.398e-6
3.520e+0, 3.417e-6
3.540e+0, 3.421e-6
3.560e+0, 3.413e-6
3.580e+0, 3.414e-6
3.600e+0, 3.373e-6
3.620e+0, 3.344e-6
3.640e+0, 3.385e-6
3.660e+0, 3.506e-6
3.680e+0, 3.719e-6
3.700e+0, 3.763e-6
3.720e+0, 3.722e-6
3.740e+0, 3.647e-6
3.760e+0, 3.681e-6
3.780e+0, 3.706e-6
3.800e+0, 3.704e-6
3.820e+0, 3.699e-6
3.840e+0, 3.710e-6
3.860e+0, 3.728e-6
3.880e+0, 3.718e-6
3.900e+0, 3.718e-6
3.920e+0, 3.791e-6
3.940e+0, 3.840e-6
3.960e+0, 3.852e-6
3.980e+0, 3.848e-6
4.000e+0, 3.847e-6
4.020e+0, 3.860e-6
4.040e+0, 3.870e-6
4.060e+0, 3.859e-6
4.080e+0, 3.853e-6
4.100e+0, 3.874e-6
4.120e+0, 3.885e-6
4.140e+0, 3.850e-6
4.160e+0, 3.667e-6
4.180e+0, 3.581e-6
4.200e+0, 3.555e-6
4.220e+0, 3.565e-6
4.240e+0, 3.580e-6
4.260e+0, 3.579e-6
4.280e+0, 3.565e-6
4.300e+0, 3.549e-6
4.320e+0, 3.545e-6
4.340e+0, 3.532e-6
4.360e+0, 3.519e-6
4.380e+0, 3.518e-6
4.400e+0, 3.513e-6
4.420e+0, 3.467e-6
4.440e+0, 3.468e-6
4.460e+0, 3.470e-6
4.480e+0, 3.575e-6
4.500e+0, 3.810e-6
4.520e+0, 3.847e-6
4.540e+0, 3.917e-6
4.560e+0, 3.961e-6
4.580e+0, 3.967e-6
4.600e+0, 3.941e-6
4.620e+0, 3.902e-6
4.640e+0, 3.874e-6
4.660e+0, 3.913e-6
4.680e+0, 3.912e-6
4.700e+0, 3.890e-6
4.720e+0, 3.767e-6
4.740e+0, 3.694e-6
4.760e+0, 3.707e-6
4.780e+0, 3.749e-6
4.800e+0, 3.769e-6
4.820e+0, 3.797e-6
4.840e+0, 3.800e-6
4.860e+0, 3.819e-6
4.880e+0, 3.812e-6
4.900e+0, 3.739e-6
4.920e+0, 3.670e-6
4.940e+0, 3.556e-6
4.960e+0, 3.508e-6
4.980e+0, 3.471e-6
5.000e+0, 3.491e-6
5.020e+0, 3.503e-6
5.040e+0, 3.516e-6
5.060e+0, 3.531e-6
5.080e+0, 3.534e-6
5.100e+0, 3.524e-6
5.120e+0, 3.540e-6
5.140e+0, 3.556e-6
5.160e+0, 3.597e-6
5.180e+0, 3.649e-6
5.200e+0, 3.691e-6
5.220e+0, 3.680e-6
5.240e+0, 3.728e-6
5.260e+0, 3.772e-6
5.280e+0, 3.953e-6
5.300e+0, 3.974e-6
5.320e+0, 4.012e-6
5.340e+0, 4.049e-6
5.360e+0, 4.047e-6
5.380e+0, 4.023e-6
5.400e+0, 3.994e-6
5.420e+0, 4.030e-6
5.440e+0, 4.089e-6
5.460e+0, 4.084e-6
5.480e+0, 4.096e-6
5.500e+0, 4.097e-6
5.520e+0, 4.068e-6
5.540e+0, 4.067e-6
5.560e+0, 4.078e-6
5.580e+0, 4.061e-6
5.600e+0, 4.040e-6
5.620e+0, 3.990e-6
5.640e+0, 3.984e-6
5.660e+0, 3.989e-6
5.680e+0, 3.988e-6
5.700e+0, 3.981e-6
5.720e+0, 3.982e-6
5.740e+0, 3.979e-6
5.760e+0, 3.986e-6
5.780e+0, 3.984e-6
5.800e+0, 3.988e-6
5.820e+0, 3.998e-6
5.840e+0, 3.998e-6
5.860e+0, 3.965e-6
5.880e+0, 3.957e-6
5.900e+0, 3.963e-6
5.920e+0, 3.987e-6
5.940e+0, 3.971e-6
5.960e+0, 3.941e-6
5.980e+0, 3.925e-6
6.000e+0, 3.914e-6
6.020e+0, 3.915e-6
6.040e+0, 3.913e-6
6.060e+0, 3.906e-6
6.080e+0, 3.835e-6
6.100e+0, 3.858e-6
6.120e+0, 3.939e-6
6.140e+0, 4.018e-6
6.160e+0, 4.024e-6
6.180e+0, 4.019e-6
6.200e+0, 4.026e-6
6.220e+0, 4.007e-6
6.240e+0, 3.966e-6
6.260e+0, 3.944e-6
6.280e+0, 3.907e-6
6.300e+0, 3.906e-6
6.320e+0, 3.900e-6
6.340e+0, 3.896e-6
6.360e+0, 3.903e-6
6.380e+0, 3.921e-6
6.400e+0, 3.922e-6
6.420e+0, 3.944e-6
6.440e+0, 3.958e-6
6.460e+0, 3.967e-6
6.480e+0, 3.971e-6
6.500e+0, 3.968e-6
6.520e+0, 3.962e-6
6.540e+0, 3.943e-6
6.560e+0, 3.941e-6
6.580e+0, 3.939e-6
6.600e+0, 3.926e-6
6.620e+0, 3.910e-6
6.640e+0, 3.900e-6
6.660e+0, 3.917e-6
6.680e+0, 3.926e-6
6.700e+0, 3.936e-6
6.720e+0, 3.990e-6
6.740e+0, 4.033e-6
6.760e+0, 4.044e-6
6.780e+0, 4.032e-6
6.800e+0, 4.029e-6
6.820e+0, 4.026e-6
6.840e+0, 3.991e-6
6.860e+0, 3.927e-6
6.880e+0, 3.911e-6
6.900e+0, 3.924e-6
6.920e+0, 3.931e-6
6.940e+0, 4.002e-6
6.960e+0, 4.112e-6
6.980e+0, 4.168e-6
7.000e+0, 4.221e-6
7.020e+0, 4.146e-6
7.040e+0, 4.149e-6
7.060e+0, 4.195e-6
7.080e+0, 4.219e-6
7.100e+0, 4.232e-6
7.120e+0, 4.225e-6
7.140e+0, 4.186e-6
7.160e+0, 4.122e-6
7.180e+0, 4.113e-6
7.200e+0, 4.124e-6
7.220e+0, 4.118e-6
7.240e+0, 4.077e-6
7.260e+0, 4.088e-6
7.280e+0, 4.096e-6
7.300e+0, 4.087e-6
7.320e+0, 4.073e-6
7.340e+0, 4.095e-6
7.360e+0, 4.126e-6
7.380e+0, 4.137e-6
7.400e+0, 4.128e-6
7.420e+0, 4.121e-6
7.440e+0, 4.118e-6
7.460e+0, 4.115e-6
7.480e+0, 4.121e-6
7.500e+0, 4.122e-6
7.520e+0, 4.093e-6
7.540e+0, 4.080e-6
7.560e+0, 4.076e-6
7.580e+0, 4.061e-6
7.600e+0, 4.034e-6
7.620e+0, 3.995e-6
7.640e+0, 3.839e-6
7.660e+0, 3.798e-6
7.680e+0, 3.771e-6
7.700e+0, 3.888e-6
7.720e+0, 4.004e-6
7.740e+0, 4.041e-6
7.760e+0, 4.049e-6
7.780e+0, 4.067e-6
7.800e+0, 4.060e-6
7.820e+0, 4.064e-6
7.840e+0, 4.071e-6
7.860e+0, 4.072e-6
7.880e+0, 4.077e-6
7.900e+0, 4.077e-6
7.920e+0, 4.085e-6
7.940e+0, 4.086e-6
7.960e+0, 4.122e-6
7.980e+0, 4.148e-6
8.000e+0, 4.164e-6
8.020e+0, 4.161e-6
8.040e+0, 4.165e-6
8.060e+0, 4.178e-6
8.080e+0, 4.187e-6
8.100e+0, 4.191e-6
8.120e+0, 4.204e-6
8.140e+0, 4.213e-6
8.160e+0, 4.168e-6
8.180e+0, 4.156e-6
8.200e+0, 4.155e-6
8.220e+0, 4.173e-6
8.240e+0, 4.190e-6
8.260e+0, 4.207e-6
8.280e+0, 4.217e-6
8.300e+0, 4.188e-6
8.320e+0, 4.181e-6
8.340e+0, 4.179e-6
8.360e+0, 4.177e-6
8.380e+0, 4.175e-6
8.400e+0, 4.182e-6
8.420e+0, 4.175e-6
8.440e+0, 4.159e-6
8.460e+0, 4.117e-6
8.480e+0, 4.090e-6
8.500e+0, 4.155e-6
8.520e+0, 4.298e-6
8.540e+0, 4.364e-6
8.560e+0, 4.381e-6
8.580e+0, 4.412e-6
8.600e+0, 4.439e-6
8.620e+0, 4.476e-6
8.640e+0, 4.493e-6
8.660e+0, 4.480e-6
8.680e+0, 4.481e-6
8.700e+0, 4.482e-6
8.720e+0, 4.475e-6
8.740e+0, 4.463e-6
8.760e+0, 4.458e-6
8.780e+0, 4.463e-6
8.800e+0, 4.464e-6
8.820e+0, 4.458e-6
8.840e+0, 4.452e-6
8.860e+0, 4.374e-6
8.880e+0, 4.352e-6
8.900e+0, 4.328e-6
8.920e+0, 4.321e-6
8.940e+0, 4.342e-6
8.960e+0, 4.308e-6
8.980e+0, 4.288e-6
9.000e+0, 4.248e-6
9.020e+0, 4.245e-6
9.040e+0, 4.250e-6
9.060e+0, 4.266e-6
9.080e+0, 4.267e-6
9.100e+0, 4.258e-6
9.120e+0, 4.252e-6
9.140e+0, 4.253e-6
9.160e+0, 4.242e-6
9.180e+0, 4.242e-6
9.200e+0, 4.248e-6
9.220e+0, 4.243e-6
9.240e+0, 4.241e-6
9.260e+0, 4.199e-6
9.280e+0, 4.219e-6
9.300e+0, 4.237e-6
9.320e+0, 4.283e-6
9.340e+0, 4.405e-6
9.360e+0, 4.482e-6
9.380e+0, 4.547e-6
9.400e+0, 4.540e-6
9.420e+0, 4.518e-6
9.440e+0, 4.521e-6
9.460e+0, 4.502e-6
9.480e+0, 4.469e-6
9.500e+0, 4.463e-6
9.520e+0, 4.472e-6
9.540e+0, 4.509e-6
9.560e+0, 4.500e-6
9.580e+0, 4.450e-6
9.600e+0, 4.468e-6
9.620e+0, 4.481e-6
9.640e+0, 4.489e-6
9.660e+0, 4.520e-6
9.680e+0, 4.531e-6
9.700e+0, 4.519e-6
9.720e+0, 4.519e-6
9.740e+0, 4.513e-6
9.760e+0, 4.495e-6
9.780e+0, 4.486e-6
9.800e+0, 4.467e-6
9.820e+0, 4.449e-6
9.840e+0, 4.449e-6
9.860e+0, 4.493e-6
9.880e+0, 4.508e-6
9.900e+0, 4.490e-6
9.920e+0, 4.490e-6
9.940e+0, 4.486e-6
9.960e+0, 4.458e-6
9.980e+0, 4.447e-6
1.000e+1, 4.441e-6
1.002e+1, 4.398e-6
1.004e+1, 4.379e-6
1.006e+1, 4.325e-6
1.008e+1, 4.315e-6
1.010e+1, 4.320e-6
1.012e+1, 4.450e-6
1.014e+1, 4.617e-6
1.016e+1, 4.669e-6
1.018e+1, 4.700e-6
1.020e+1, 4.729e-6
1.022e+1, 4.732e-6
1.024e+1, 4.710e-6
1.026e+1, 4.668e-6
1.028e+1, 4.635e-6
1.030e+1, 4.639e-6
1.032e+1, 4.644e-6
1.034e+1, 4.619e-6
1.036e+1, 4.568e-6
1.038e+1, 4.686e-6
1.040e+1, 4.681e-6
1.042e+1, 4.669e-6
1.044e+1, 4.632e-6
1.046e+1, 4.638e-6
1.048e+1, 4.629e-6
1.050e+1, 4.564e-6
1.052e+1, 4.509e-6
1.054e+1, 4.524e-6
1.056e+1, 4.584e-6
1.058e+1, 4.574e-6
1.060e+1, 4.596e-6
1.062e+1, 4.622e-6
1.064e+1, 4.561e-6
1.066e+1, 4.500e-6
1.068e+1, 4.495e-6
1.070e+1, 4.470e-6
1.072e+1, 4.463e-6
1.074e+1, 4.461e-6
1.076e+1, 4.453e-6
1.078e+1, 4.420e-6
1.080e+1, 4.363e-6
1.082e+1, 4.367e-6
1.084e+1, 4.423e-6
1.086e+1, 4.419e-6
1.088e+1, 4.329e-6
1.090e+1, 4.313e-6
1.092e+1, 4.318e-6
1.094e+1, 4.419e-6
1.096e+1, 4.520e-6
1.098e+1, 4.599e-6
1.100e+1, 4.594e-6
1.102e+1, 4.628e-6
1.104e+1, 4.625e-6
1.106e+1, 4.618e-6
1.108e+1, 4.632e-6
1.110e+1, 4.614e-6
1.112e+1, 4.585e-6
1.114e+1, 4.585e-6
1.116e+1, 4.555e-6
1.118e+1, 4.534e-6
1.120e+1, 4.474e-6
1.122e+1, 4.470e-6
1.124e+1, 4.451e-6
1.126e+1, 4.430e-6
1.128e+1, 4.398e-6
1.130e+1, 4.399e-6
1.132e+1, 4.384e-6
1.134e+1, 4.376e-6
1.136e+1, 4.359e-6
1.138e+1, 4.340e-6
1.140e+1, 4.337e-6
1.142e+1, 4.320e-6
1.144e+1, 4.285e-6
1.146e+1, 4.274e-6
1.148e+1, 4.269e-6
1.150e+1, 4.264e-6
1.152e+1, 4.259e-6
1.154e+1, 4.243e-6
1.156e+1, 4.215e-6
1.158e+1, 4.204e-6
1.160e+1, 4.209e-6
1.162e+1, 4.205e-6
1.164e+1, 4.198e-6
1.166e+1, 4.187e-6
1.168e+1, 4.180e-6
1.170e+1, 4.155e-6
1.172e+1, 4.148e-6
1.174e+1, 4.138e-6
1.176e+1, 4.145e-6
1.178e+1, 4.172e-6
1.180e+1, 4.248e-6
1.182e+1, 4.348e-6
1.184e+1, 4.388e-6
1.186e+1, 4.412e-6
1.188e+1, 4.429e-6
1.190e+1, 4.441e-6
1.192e+1, 4.427e-6
1.194e+1, 4.413e-6
1.196e+1, 4.388e-6
1.198e+1, 4.388e-6
1.200e+1, 4.402e-6
1.202e+1, 4.388e-6
1.204e+1, 4.336e-6
1.206e+1, 4.348e-6
1.208e+1, 4.348e-6
1.210e+1, 4.343e-6
1.212e+1, 4.343e-6
1.214e+1, 4.357e-6
1.216e+1, 4.344e-6
1.218e+1, 4.317e-6
1.220e+1, 4.305e-6
1.222e+1, 4.302e-6
1.224e+1, 4.288e-6
1.226e+1, 4.277e-6
1.228e+1, 4.266e-6
1.230e+1, 4.264e-6
1.232e+1, 4.251e-6
1.234e+1, 4.246e-6
1.236e+1, 4.224e-6
1.238e+1, 4.218e-6
1.240e+1, 4.207e-6
1.242e+1, 4.201e-6
1.244e+1, 4.181e-6
1.246e+1, 4.172e-6
1.248e+1, 4.175e-6
1.250e+1, 4.188e-6
1.252e+1, 4.221e-6
1.254e+1, 4.226e-6
1.256e+1, 4.263e-6
1.258e+1, 4.264e-6
1.260e+1, 4.285e-6
1.262e+1, 4.304e-6
1.264e+1, 4.370e-6
1.266e+1, 4.413e-6
1.268e+1, 4.454e-6
1.270e+1, 4.451e-6
1.272e+1, 4.473e-6
1.274e+1, 4.466e-6
1.276e+1, 4.433e-6
1.278e+1, 4.431e-6
1.280e+1, 4.456e-6
1.282e+1, 4.461e-6
1.284e+1, 4.475e-6
1.286e+1, 4.459e-6
1.288e+1, 4.399e-6
1.290e+1, 4.424e-6
1.292e+1, 4.445e-6
1.294e+1, 4.439e-6
1.296e+1, 4.430e-6
1.298e+1, 4.418e-6
1.300e+1, 4.431e-6
1.302e+1, 4.427e-6
1.304e+1, 4.414e-6
1.306e+1, 4.402e-6
1.308e+1, 4.382e-6
1.310e+1, 4.378e-6
1.312e+1, 4.379e-6
1.314e+1, 4.418e-6
1.316e+1, 4.424e-6
1.318e+1, 4.423e-6
1.320e+1, 4.428e-6
1.322e+1, 4.434e-6
1.324e+1, 4.428e-6
1.326e+1, 4.428e-6
1.328e+1, 4.419e-6
1.330e+1, 4.407e-6
1.332e+1, 4.396e-6
1.334e+1, 4.405e-6
1.336e+1, 4.403e-6
1.338e+1, 4.405e-6
1.340e+1, 4.384e-6
1.342e+1, 4.371e-6
1.344e+1, 4.378e-6
1.346e+1, 4.362e-6
1.348e+1, 4.413e-6
1.350e+1, 4.496e-6
1.352e+1, 4.541e-6
1.354e+1, 4.577e-6
1.356e+1, 4.602e-6
1.358e+1, 4.620e-6
1.360e+1, 4.632e-6
1.362e+1, 4.591e-6
1.364e+1, 4.594e-6
1.366e+1, 4.586e-6
1.368e+1, 4.553e-6
1.370e+1, 4.538e-6
1.372e+1, 4.491e-6
1.374e+1, 4.501e-6
1.376e+1, 4.524e-6
1.378e+1, 4.527e-6
1.380e+1, 4.582e-6
1.382e+1, 4.604e-6
1.384e+1, 4.601e-6
1.386e+1, 4.597e-6
1.388e+1, 4.574e-6
1.390e+1, 4.525e-6
1.392e+1, 4.514e-6
1.394e+1, 4.505e-6
1.396e+1, 4.500e-6
1.398e+1, 4.487e-6
1.400e+1, 4.484e-6
1.402e+1, 4.480e-6
1.404e+1, 4.478e-6
1.406e+1, 4.476e-6
1.408e+1, 4.474e-6
1.410e+1, 4.472e-6
1.412e+1, 4.464e-6
1.414e+1, 4.464e-6
1.416e+1, 4.466e-6
1.418e+1, 4.451e-6
1.420e+1, 4.438e-6
1.422e+1, 4.433e-6
1.424e+1, 4.411e-6
1.426e+1, 4.404e-6
1.428e+1, 4.451e-6
1.430e+1, 4.482e-6
1.432e+1, 4.649e-6
1.434e+1, 4.719e-6
1.436e+1, 4.852e-6
1.438e+1, 4.836e-6
1.440e+1, 4.792e-6
1.442e+1, 4.785e-6
1.444e+1, 4.729e-6
1.446e+1, 4.692e-6
1.448e+1, 4.710e-6
1.450e+1, 4.705e-6
1.452e+1, 4.701e-6
1.454e+1, 4.603e-6
1.456e+1, 4.671e-6
1.458e+1, 4.713e-6
1.460e+1, 4.729e-6
1.462e+1, 4.722e-6
1.464e+1, 4.726e-6
1.466e+1, 4.754e-6
1.468e+1, 4.767e-6
1.470e+1, 4.691e-6
1.472e+1, 4.666e-6
1.474e+1, 4.645e-6
1.476e+1, 4.617e-6
1.478e+1, 4.612e-6
1.480e+1, 4.613e-6
1.482e+1, 4.597e-6
1.484e+1, 4.560e-6
1.486e+1, 4.566e-6
1.488e+1, 4.569e-6
1.490e+1, 4.564e-6
1.492e+1, 4.555e-6
1.494e+1, 4.553e-6
1.496e+1, 4.546e-6
1.498e+1, 4.538e-6
1.500e+1, 4.523e-6
1.502e+1, 4.518e-6
1.504e+1, 4.467e-6
1.506e+1, 4.456e-6
1.508e+1, 4.532e-6
1.510e+1, 4.732e-6
1.512e+1, 4.790e-6
1.514e+1, 4.770e-6
1.516e+1, 4.743e-6
1.518e+1, 4.693e-6
1.520e+1, 4.679e-6
1.522e+1, 4.675e-6
1.524e+1, 4.681e-6
1.526e+1, 4.682e-6
1.528e+1, 4.682e-6
1.530e+1, 4.667e-6
1.532e+1, 4.588e-6
1.534e+1, 4.658e-6
1.536e+1, 4.673e-6
1.538e+1, 4.682e-6
1.540e+1, 4.702e-6
1.542e+1, 4.694e-6
1.544e+1, 4.668e-6
1.546e+1, 4.655e-6
1.548e+1, 4.648e-6
1.550e+1, 4.639e-6
1.552e+1, 4.632e-6
1.554e+1, 4.626e-6
1.556e+1, 4.627e-6
1.558e+1, 4.614e-6
1.560e+1, 4.592e-6
1.562e+1, 4.568e-6
1.564e+1, 4.568e-6
1.566e+1, 4.570e-6
1.568e+1, 4.555e-6
1.570e+1, 4.537e-6
1.572e+1, 4.529e-6
1.574e+1, 4.527e-6
1.576e+1, 4.516e-6
1.578e+1, 4.504e-6
1.580e+1, 4.481e-6
1.582e+1, 4.469e-6
1.584e+1, 4.466e-6
1.586e+1, 4.479e-6
1.588e+1, 4.491e-6
1.590e+1, 4.609e-6
1.592e+1, 4.726e-6
1.594e+1, 4.826e-6
1.596e+1, 4.865e-6
1.598e+1, 4.903e-6
1.600e+1, 4.874e-6
1.602e+1, 4.865e-6
1.604e+1, 4.798e-6
1.606e+1, 4.777e-6
1.608e+1, 4.789e-6
1.610e+1, 4.796e-6
1.612e+1, 4.787e-6
1.614e+1, 4.756e-6
1.616e+1, 4.815e-6
1.618e+1, 4.821e-6
1.620e+1, 4.806e-6
1.622e+1, 4.769e-6
1.624e+1, 4.770e-6
1.626e+1, 4.745e-6
1.628e+1, 4.703e-6
1.630e+1, 4.633e-6
1.632e+1, 4.606e-6
1.634e+1, 4.603e-6
1.636e+1, 4.603e-6
1.638e+1, 4.589e-6
1.640e+1, 4.558e-6
1.642e+1, 4.561e-6
1.644e+1, 4.558e-6
1.646e+1, 4.555e-6
1.648e+1, 4.545e-6
1.650e+1, 4.553e-6
1.652e+1, 4.558e-6
1.654e+1, 4.565e-6
1.656e+1, 4.560e-6
1.658e+1, 4.507e-6
1.660e+1, 4.474e-6
1.662e+1, 4.466e-6
1.664e+1, 4.480e-6
1.666e+1, 4.468e-6
1.668e+1, 4.458e-6
1.670e+1, 4.439e-6
1.672e+1, 4.459e-6
1.674e+1, 4.571e-6
1.676e+1, 4.751e-6
1.678e+1, 4.815e-6
1.680e+1, 4.877e-6
1.682e+1, 4.911e-6
1.684e+1, 4.913e-6
1.686e+1, 4.896e-6
1.688e+1, 4.888e-6
1.690e+1, 4.892e-6
1.692e+1, 4.892e-6
1.694e+1, 4.903e-6
1.696e+1, 4.872e-6
1.698e+1, 4.766e-6
1.700e+1, 4.786e-6
1.702e+1, 4.792e-6
1.704e+1, 4.783e-6
1.706e+1, 4.765e-6
1.708e+1, 4.728e-6
1.710e+1, 4.684e-6
1.712e+1, 4.613e-6
1.714e+1, 4.579e-6
1.716e+1, 4.583e-6
1.718e+1, 4.588e-6
1.720e+1, 4.598e-6
1.722e+1, 4.625e-6
1.724e+1, 4.630e-6
1.726e+1, 4.630e-6
1.728e+1, 4.639e-6
1.730e+1, 4.629e-6
1.732e+1, 4.576e-6
1.734e+1, 4.584e-6
1.736e+1, 4.625e-6
1.738e+1, 4.600e-6
1.740e+1, 4.511e-6
1.742e+1, 4.480e-6
1.744e+1, 4.479e-6
1.746e+1, 4.475e-6
1.748e+1, 4.471e-6
1.750e+1, 4.461e-6
1.752e+1, 4.448e-6
1.754e+1, 4.439e-6
1.756e+1, 4.426e-6
1.758e+1, 4.425e-6
1.760e+1, 4.478e-6
1.762e+1, 4.619e-6
1.764e+1, 4.705e-6
1.766e+1, 4.753e-6
1.768e+1, 4.762e-6
1.770e+1, 4.761e-6
1.772e+1, 4.768e-6
1.774e+1, 4.776e-6
1.776e+1, 4.801e-6
1.778e+1, 4.803e-6
1.780e+1, 4.804e-6
1.782e+1, 4.804e-6
1.784e+1, 4.772e-6
1.786e+1, 4.682e-6
1.788e+1, 4.706e-6
1.790e+1, 4.699e-6
1.792e+1, 4.705e-6
1.794e+1, 4.710e-6
1.796e+1, 4.683e-6
1.798e+1, 4.590e-6
1.800e+1, 4.528e-6
1.802e+1, 4.489e-6
1.804e+1, 4.502e-6
1.806e+1, 4.546e-6
1.808e+1, 4.575e-6
1.810e+1, 4.548e-6
1.812e+1, 4.537e-6
1.814e+1, 4.537e-6
1.816e+1, 4.531e-6
1.818e+1, 4.533e-6
1.820e+1, 4.530e-6
1.822e+1, 4.514e-6
1.824e+1, 4.503e-6
1.826e+1, 4.504e-6
1.828e+1, 4.506e-6
1.830e+1, 4.513e-6
1.832e+1, 4.548e-6
1.834e+1, 4.581e-6
1.836e+1, 4.584e-6
1.838e+1, 4.580e-6
1.840e+1, 4.497e-6
1.842e+1, 4.460e-6
1.844e+1, 4.442e-6
1.846e+1, 4.433e-6
1.848e+1, 4.427e-6
1.850e+1, 4.437e-6
1.852e+1, 4.506e-6
1.854e+1, 4.605e-6
1.856e+1, 4.727e-6
1.858e+1, 4.825e-6
1.860e+1, 4.841e-6
1.862e+1, 4.865e-6
1.864e+1, 4.866e-6
1.866e+1, 4.862e-6
1.868e+1, 4.875e-6
1.870e+1, 4.878e-6
1.872e+1, 4.846e-6
1.874e+1, 4.834e-6
1.876e+1, 4.792e-6
1.878e+1, 4.799e-6
1.880e+1, 4.859e-6
1.882e+1, 4.849e-6
1.884e+1, 4.837e-6
1.886e+1, 4.845e-6
1.888e+1, 4.827e-6
1.890e+1, 4.795e-6
1.892e+1, 4.779e-6
1.894e+1, 4.752e-6
1.896e+1, 4.721e-6
1.898e+1, 4.713e-6
1.900e+1, 4.700e-6
1.902e+1, 4.680e-6
1.904e+1, 4.677e-6
1.906e+1, 4.668e-6
1.908e+1, 4.645e-6
1.910e+1, 4.645e-6
1.912e+1, 4.640e-6
1.914e+1, 4.615e-6
1.916e+1, 4.599e-6
1.918e+1, 4.592e-6
1.920e+1, 4.595e-6
1.922e+1, 4.592e-6
1.924e+1, 4.585e-6
1.926e+1, 4.575e-6
1.928e+1, 4.561e-6
1.930e+1, 4.537e-6
1.932e+1, 4.523e-6
1.934e+1, 4.531e-6
1.936e+1, 4.527e-6
1.938e+1, 4.607e-6
1.940e+1, 4.749e-6
1.942e+1, 4.851e-6
1.944e+1, 4.924e-6
1.946e+1, 4.968e-6
1.948e+1, 4.960e-6
1.950e+1, 4.924e-6
1.952e+1, 4.879e-6
1.954e+1, 4.888e-6
1.956e+1, 4.876e-6
1.958e+1, 4.871e-6
1.960e+1, 4.768e-6
1.962e+1, 4.676e-6
1.964e+1, 4.730e-6
1.966e+1, 4.771e-6
1.968e+1, 4.765e-6
1.970e+1, 4.721e-6
1.972e+1, 4.717e-6
1.974e+1, 4.694e-6
1.976e+1, 4.690e-6
1.978e+1, 4.692e-6
1.980e+1, 4.698e-6
1.982e+1, 4.682e-6
1.984e+1, 4.659e-6
1.986e+1, 4.654e-6
1.988e+1, 4.656e-6
1.990e+1, 4.628e-6
1.992e+1, 4.605e-6
1.994e+1, 4.581e-6
1.996e+1, 4.575e-6
1.998e+1, 4.574e-6
2.000e+1, 4.603e-6
2.002e+1, 4.579e-6
2.004e+1, 4.557e-6
2.006e+1, 4.555e-6
2.008e+1, 4.561e-6
2.010e+1, 4.552e-6
2.012e+1, 4.540e-6
2.014e+1, 4.534e-6
2.016e+1, 4.516e-6
2.018e+1, 4.509e-6
2.020e+1, 4.507e-6
2.022e+1, 4.532e-6
2.024e+1, 4.662e-6
2.026e+1, 4.802e-6
2.028e+1, 4.890e-6
2.030e+1, 4.931e-6
2.032e+1, 4.936e-6
2.034e+1, 4.952e-6
2.036e+1, 4.918e-6
2.038e+1, 4.881e-6
2.040e+1, 4.899e-6
2.042e+1, 4.945e-6
2.044e+1, 4.941e-6
2.046e+1, 4.910e-6
2.048e+1, 4.763e-6
2.050e+1, 4.777e-6
2.052e+1, 4.790e-6
2.054e+1, 4.801e-6
2.056e+1, 4.795e-6
2.058e+1, 4.778e-6
2.060e+1, 4.741e-6
2.062e+1, 4.663e-6
2.064e+1, 4.630e-6
2.066e+1, 4.589e-6
2.068e+1, 4.577e-6
2.070e+1, 4.562e-6
2.072e+1, 4.540e-6
2.074e+1, 4.533e-6
2.076e+1, 4.537e-6
2.078e+1, 4.548e-6
2.080e+1, 4.534e-6
2.082e+1, 4.541e-6
2.084e+1, 4.551e-6
2.086e+1, 4.612e-6
2.088e+1, 4.598e-6
2.090e+1, 4.564e-6
2.092e+1, 4.562e-6
2.094e+1, 4.560e-6
2.096e+1, 4.549e-6
2.098e+1, 4.531e-6
2.100e+1, 4.494e-6
2.102e+1, 4.483e-6
2.104e+1, 4.497e-6
2.106e+1, 4.506e-6
2.108e+1, 4.604e-6
2.110e+1, 4.832e-6
2.112e+1, 4.924e-6
2.114e+1, 4.991e-6
2.116e+1, 4.976e-6
2.118e+1, 4.953e-6
2.120e+1, 4.942e-6
2.122e+1, 4.928e-6
2.124e+1, 4.920e-6
2.126e+1, 4.925e-6
2.128e+1, 4.946e-6
2.130e+1, 4.932e-6
2.132e+1, 4.859e-6
2.134e+1, 4.833e-6
2.136e+1, 4.867e-6
2.138e+1, 4.852e-6
2.140e+1, 4.829e-6
2.142e+1, 4.799e-6
2.144e+1, 4.771e-6
2.146e+1, 4.740e-6
2.148e+1, 4.692e-6
2.150e+1, 4.620e-6
2.152e+1, 4.609e-6
2.154e+1, 4.592e-6
2.156e+1, 4.571e-6
2.158e+1, 4.546e-6
2.160e+1, 4.533e-6
2.162e+1, 4.533e-6
2.164e+1, 4.528e-6
2.166e+1, 4.514e-6
2.168e+1, 4.477e-6
2.170e+1, 4.468e-6
2.172e+1, 4.464e-6
2.174e+1, 4.463e-6
2.176e+1, 4.458e-6
2.178e+1, 4.451e-6
2.180e+1, 4.448e-6
2.182e+1, 4.446e-6
2.184e+1, 4.432e-6
2.186e+1, 4.424e-6
2.188e+1, 4.419e-6
2.190e+1, 4.440e-6
2.192e+1, 4.527e-6
2.194e+1, 4.645e-6
2.196e+1, 4.757e-6
2.198e+1, 4.770e-6
2.200e+1, 4.757e-6
2.202e+1, 4.755e-6
2.204e+1, 4.733e-6
2.206e+1, 4.707e-6
2.208e+1, 4.749e-6
2.210e+1, 4.821e-6
2.212e+1, 4.838e-6
2.214e+1, 4.785e-6
2.216e+1, 4.695e-6
2.218e+1, 4.668e-6
2.220e+1, 4.694e-6
2.222e+1, 4.698e-6
2.224e+1, 4.698e-6
2.226e+1, 4.706e-6
2.228e+1, 4.707e-6
2.230e+1, 4.640e-6
2.232e+1, 4.547e-6
2.234e+1, 4.521e-6
2.236e+1, 4.529e-6
2.238e+1, 4.523e-6
2.240e+1, 4.502e-6
2.242e+1, 4.531e-6
2.244e+1, 4.551e-6
2.246e+1, 4.564e-6
2.248e+1, 4.584e-6
2.250e+1, 4.592e-6
2.252e+1, 4.563e-6
2.254e+1, 4.553e-6
2.256e+1, 4.523e-6
2.258e+1, 4.526e-6
2.260e+1, 4.511e-6
2.262e+1, 4.507e-6
2.264e+1, 4.502e-6
2.266e+1, 4.470e-6
2.268e+1, 4.456e-6
2.270e+1, 4.433e-6
2.272e+1, 4.431e-6
2.274e+1, 4.483e-6
2.276e+1, 4.568e-6
2.278e+1, 4.760e-6
2.280e+1, 4.853e-6
2.282e+1, 4.883e-6
2.284e+1, 4.886e-6
2.286e+1, 4.890e-6
2.288e+1, 4.879e-6
2.290e+1, 4.861e-6
2.292e+1, 4.852e-6
2.294e+1, 4.847e-6
2.296e+1, 4.854e-6
2.298e+1, 4.827e-6
2.300e+1, 4.793e-6
2.302e+1, 4.832e-6
2.304e+1, 4.859e-6
2.306e+1, 4.864e-6
2.308e+1, 4.855e-6
2.310e+1, 4.847e-6
2.312e+1, 4.855e-6
2.314e+1, 4.826e-6
2.316e+1, 4.783e-6
2.318e+1, 4.743e-6
2.320e+1, 4.733e-6
2.322e+1, 4.717e-6
2.324e+1, 4.712e-6
2.326e+1, 4.714e-6
2.328e+1, 4.722e-6
2.330e+1, 4.716e-6
2.332e+1, 4.700e-6
2.334e+1, 4.656e-6
2.336e+1, 4.624e-6
2.338e+1, 4.591e-6
2.340e+1, 4.585e-6
2.342e+1, 4.577e-6
2.344e+1, 4.563e-6
2.346e+1, 4.542e-6
2.348e+1, 4.536e-6
2.350e+1, 4.520e-6
2.352e+1, 4.513e-6
2.354e+1, 4.513e-6
2.356e+1, 4.542e-6
2.358e+1, 4.741e-6
2.360e+1, 4.876e-6
2.362e+1, 4.907e-6
2.364e+1, 4.960e-6
2.366e+1, 4.965e-6
2.368e+1, 4.955e-6
2.370e+1, 4.950e-6
2.372e+1, 4.918e-6
2.374e+1, 4.881e-6
2.376e+1, 4.888e-6
2.378e+1, 4.884e-6
2.380e+1, 4.872e-6
2.382e+1, 4.826e-6
2.384e+1, 4.842e-6
2.386e+1, 4.849e-6
2.388e+1, 4.845e-6
2.390e+1, 4.857e-6
2.392e+1, 4.849e-6
2.394e+1, 4.819e-6
2.396e+1, 4.769e-6
2.398e+1, 4.720e-6
2.400e+1, 4.724e-6
2.402e+1, 4.746e-6
2.404e+1, 4.729e-6
2.406e+1, 4.692e-6
2.408e+1, 4.682e-6
2.410e+1, 4.675e-6
2.412e+1, 4.695e-6
2.414e+1, 4.693e-6
2.416e+1, 4.676e-6
2.418e+1, 4.688e-6
2.420e+1, 4.689e-6
2.422e+1, 4.684e-6
2.424e+1, 4.680e-6
2.426e+1, 4.673e-6
2.428e+1, 4.678e-6
2.430e+1, 4.649e-6
2.432e+1, 4.628e-6
2.434e+1, 4.629e-6
2.436e+1, 4.626e-6
2.438e+1, 4.713e-6
2.440e+1, 4.838e-6
2.442e+1, 4.886e-6
2.444e+1, 4.878e-6
2.446e+1, 4.890e-6
2.448e+1, 4.882e-6
2.450e+1, 4.889e-6
2.452e+1, 4.875e-6
2.454e+1, 4.890e-6
2.456e+1, 4.898e-6
2.458e+1, 4.894e-6
2.460e+1, 4.897e-6
2.462e+1, 4.840e-6
2.464e+1, 4.823e-6
2.466e+1, 4.832e-6
2.468e+1, 4.837e-6
2.470e+1, 4.836e-6
2.472e+1, 4.812e-6
2.474e+1, 4.803e-6
2.476e+1, 4.789e-6
2.478e+1, 4.751e-6
2.480e+1, 4.735e-6
2.482e+1, 4.724e-6
2.484e+1, 4.719e-6
2.486e+1, 4.699e-6
2.488e+1, 4.678e-6
2.490e+1, 4.673e-6
2.492e+1, 4.667e-6
2.494e+1, 4.643e-6
2.496e+1, 4.633e-6
2.498e+1, 4.625e-6
2.500e+1, 4.615e-6
2.502e+1, 4.608e-6
2.504e+1, 4.603e-6
2.506e+1, 4.585e-6
2.508e+1, 4.562e-6
2.510e+1, 4.559e-6
2.512e+1, 4.535e-6
2.514e+1, 4.552e-6
2.516e+1, 4.562e-6
2.518e+1, 4.573e-6
2.520e+1, 4.661e-6
2.522e+1, 4.815e-6
2.524e+1, 4.857e-6
2.526e+1, 4.926e-6
2.528e+1, 4.940e-6
2.530e+1, 4.935e-6
2.532e+1, 4.927e-6
2.534e+1, 4.933e-6
2.536e+1, 4.928e-6
2.538e+1, 4.901e-6
2.540e+1, 4.895e-6
2.542e+1, 4.880e-6
2.544e+1, 4.819e-6
2.546e+1, 4.775e-6
2.548e+1, 4.787e-6
2.550e+1, 4.792e-6
2.552e+1, 4.796e-6
2.554e+1, 4.818e-6
2.556e+1, 4.849e-6
2.558e+1, 4.885e-6
2.560e+1, 4.827e-6
2.562e+1, 4.830e-6
2.564e+1, 4.795e-6
2.566e+1, 4.727e-6
2.568e+1, 4.688e-6
2.570e+1, 4.677e-6
2.572e+1, 4.672e-6
2.574e+1, 4.653e-6
2.576e+1, 4.634e-6
2.578e+1, 4.628e-6
2.580e+1, 4.636e-6
2.582e+1, 4.637e-6
2.584e+1, 4.640e-6
2.586e+1, 4.611e-6
2.588e+1, 4.606e-6
2.590e+1, 4.582e-6
2.592e+1, 4.575e-6
2.594e+1, 4.584e-6
2.596e+1, 4.531e-6
2.598e+1, 4.559e-6
2.600e+1, 4.540e-6
2.602e+1, 4.633e-6
2.604e+1, 4.786e-6
2.606e+1, 4.884e-6
2.608e+1, 4.939e-6
2.610e+1, 4.972e-6
2.612e+1, 4.970e-6
2.614e+1, 4.962e-6
2.616e+1, 4.940e-6
2.618e+1, 4.914e-6
2.620e+1, 4.868e-6
2.622e+1, 4.910e-6
2.624e+1, 4.953e-6
2.626e+1, 4.914e-6
2.628e+1, 4.828e-6
2.630e+1, 4.840e-6
2.632e+1, 4.862e-6
2.634e+1, 4.887e-6
2.636e+1, 4.915e-6
2.638e+1, 4.911e-6
2.640e+1, 4.888e-6
2.642e+1, 4.864e-6
2.644e+1, 4.851e-6
2.646e+1, 4.849e-6
2.648e+1, 4.844e-6
2.650e+1, 4.830e-6
2.652e+1, 4.828e-6
2.654e+1, 4.825e-6
2.656e+1, 4.824e-6
2.658e+1, 4.811e-6
2.660e+1, 4.801e-6
2.662e+1, 4.759e-6
2.664e+1, 4.711e-6
2.666e+1, 4.692e-6
2.668e+1, 4.686e-6
2.670e+1, 4.661e-6
2.672e+1, 4.644e-6
2.674e+1, 4.623e-6
2.676e+1, 4.608e-6
2.678e+1, 4.615e-6
2.680e+1, 4.602e-6
2.682e+1, 4.595e-6
2.684e+1, 4.732e-6
2.686e+1, 4.875e-6
2.688e+1, 4.946e-6
2.690e+1, 4.976e-6
2.692e+1, 4.992e-6
2.694e+1, 4.981e-6
2.696e+1, 4.972e-6
2.698e+1, 4.970e-6
2.700e+1, 4.962e-6
2.702e+1, 4.937e-6
2.704e+1, 4.945e-6
2.706e+1, 4.945e-6
2.708e+1, 4.922e-6
2.710e+1, 4.927e-6
2.712e+1, 4.944e-6
2.714e+1, 4.953e-6
2.716e+1, 4.959e-6
2.718e+1, 4.977e-6
2.720e+1, 4.938e-6
2.722e+1, 4.893e-6
2.724e+1, 4.867e-6
2.726e+1, 4.851e-6
2.728e+1, 4.865e-6
2.730e+1, 4.862e-6
2.732e+1, 4.856e-6
2.734e+1, 4.845e-6
2.736e+1, 4.845e-6
2.738e+1, 4.839e-6
2.740e+1, 4.749e-6
2.742e+1, 4.703e-6
2.744e+1, 4.725e-6
2.746e+1, 4.751e-6
2.748e+1, 4.779e-6
2.750e+1, 4.750e-6
2.752e+1, 4.707e-6
2.754e+1, 4.661e-6
2.756e+1, 4.697e-6
2.758e+1, 4.717e-6
2.760e+1, 4.750e-6
2.762e+1, 4.856e-6
2.764e+1, 4.974e-6
2.766e+1, 5.039e-6
2.768e+1, 5.064e-6
2.770e+1, 5.067e-6
2.772e+1, 5.051e-6
2.774e+1, 5.038e-6
2.776e+1, 5.030e-6
2.778e+1, 5.020e-6
2.780e+1, 4.996e-6
2.782e+1, 4.980e-6
2.784e+1, 4.933e-6
2.786e+1, 4.920e-6
2.788e+1, 4.964e-6
2.790e+1, 4.972e-6
2.792e+1, 4.963e-6
2.794e+1, 4.955e-6
2.796e+1, 4.961e-6
2.798e+1, 4.888e-6
2.800e+1, 4.844e-6
2.802e+1, 4.802e-6
2.804e+1, 4.765e-6
2.806e+1, 4.756e-6
2.808e+1, 4.763e-6
2.810e+1, 4.772e-6
2.812e+1, 4.739e-6
2.814e+1, 4.720e-6
2.816e+1, 4.718e-6
2.818e+1, 4.720e-6
2.820e+1, 4.724e-6
2.822e+1, 4.725e-6
2.824e+1, 4.720e-6
2.826e+1, 4.713e-6
2.828e+1, 4.661e-6
2.830e+1, 4.641e-6
2.832e+1, 4.636e-6
2.834e+1, 4.648e-6
2.836e+1, 4.645e-6
2.838e+1, 4.688e-6
2.840e+1, 4.809e-6
2.842e+1, 4.957e-6
2.844e+1, 5.038e-6
2.846e+1, 5.047e-6
2.848e+1, 5.043e-6
2.850e+1, 5.012e-6
2.852e+1, 5.008e-6
2.854e+1, 5.004e-6
2.856e+1, 5.003e-6
2.858e+1, 5.009e-6
2.860e+1, 5.001e-6
2.862e+1, 4.974e-6
2.864e+1, 4.964e-6
2.866e+1, 4.988e-6
2.868e+1, 4.982e-6
2.870e+1, 4.964e-6
2.872e+1, 4.936e-6
2.874e+1, 4.890e-6
2.876e+1, 4.848e-6
2.878e+1, 4.799e-6
2.880e+1, 4.836e-6
2.882e+1, 4.861e-6
2.884e+1, 4.852e-6
2.886e+1, 4.822e-6
2.888e+1, 4.808e-6
2.890e+1, 4.821e-6
2.892e+1, 4.813e-6
2.894e+1, 4.789e-6
2.896e+1, 4.771e-6
2.898e+1, 4.783e-6
2.900e+1, 4.788e-6
2.902e+1, 4.766e-6
2.904e+1, 4.761e-6
2.906e+1, 4.753e-6
2.908e+1, 4.709e-6
2.910e+1, 4.630e-6
2.912e+1, 4.572e-6
2.914e+1, 4.558e-6
2.916e+1, 4.557e-6
2.918e+1, 4.689e-6
2.920e+1, 4.805e-6
2.922e+1, 4.949e-6
2.924e+1, 5.005e-6
2.926e+1, 5.016e-6
2.928e+1, 4.996e-6
2.930e+1, 4.981e-6
2.932e+1, 4.928e-6
2.934e+1, 4.890e-6
2.936e+1, 4.890e-6
2.938e+1, 4.850e-6
2.940e+1, 4.848e-6
2.942e+1, 4.811e-6
2.944e+1, 4.783e-6
2.946e+1, 4.831e-6
2.948e+1, 4.860e-6
2.950e+1, 4.841e-6
2.952e+1, 4.856e-6
2.954e+1, 4.857e-6
2.956e+1, 4.853e-6
2.958e+1, 4.844e-6
2.960e+1, 4.841e-6
2.962e+1, 4.853e-6
2.964e+1, 4.860e-6
2.966e+1, 4.867e-6
2.968e+1, 4.864e-6
2.970e+1, 4.861e-6
2.972e+1, 4.858e-6
2.974e+1, 4.852e-6
2.976e+1, 4.841e-6
2.978e+1, 4.758e-6
2.980e+1, 4.724e-6
2.982e+1, 4.709e-6
2.984e+1, 4.704e-6
2.986e+1, 4.660e-6
2.988e+1, 4.577e-6
2.990e+1, 4.563e-6
2.992e+1, 4.560e-6
2.994e+1, 4.671e-6
2.996e+1, 4.791e-6
2.998e+1, 4.880e-6
3.000e+1, 4.925e-6
3.002e+1, 4.984e-6
3.004e+1, 5.017e-6
3.006e+1, 5.026e-6
3.008e+1, 4.949e-6
3.010e+1, 4.893e-6
3.012e+1, 4.893e-6
3.014e+1, 4.888e-6
3.016e+1, 4.845e-6
3.018e+1, 4.794e-6
3.020e+1, 4.820e-6
3.022e+1, 4.854e-6
3.024e+1, 4.872e-6
3.026e+1, 4.845e-6
3.028e+1, 4.856e-6
3.030e+1, 4.869e-6
3.032e+1, 4.872e-6
3.034e+1, 4.861e-6
3.036e+1, 4.839e-6
3.038e+1, 4.842e-6
3.040e+1, 4.850e-6
3.042e+1, 4.868e-6
3.044e+1, 4.867e-6
3.046e+1, 4.879e-6
3.048e+1, 4.880e-6
3.050e+1, 4.859e-6
3.052e+1, 4.833e-6
3.054e+1, 4.848e-6
3.056e+1, 4.828e-6
3.058e+1, 4.817e-6
3.060e+1, 4.823e-6
3.062e+1, 4.819e-6
3.064e+1, 4.788e-6
3.066e+1, 4.697e-6
3.068e+1, 4.695e-6
3.070e+1, 4.725e-6
3.072e+1, 4.801e-6
3.074e+1, 4.922e-6
3.076e+1, 5.074e-6
3.078e+1, 5.098e-6
3.080e+1, 5.107e-6
3.082e+1, 5.105e-6
3.084e+1, 5.097e-6
3.086e+1, 5.108e-6
3.088e+1, 5.115e-6
3.090e+1, 5.092e-6
3.092e+1, 5.070e-6
3.094e+1, 5.068e-6
3.096e+1, 5.050e-6
3.098e+1, 5.014e-6
3.100e+1, 5.048e-6
3.102e+1, 5.078e-6
3.104e+1, 5.067e-6
3.106e+1, 5.060e-6
3.108e+1, 5.066e-6
3.110e+1, 5.018e-6
3.112e+1, 4.945e-6
3.114e+1, 4.935e-6
3.116e+1, 4.908e-6
3.118e+1, 4.894e-6
3.120e+1, 4.891e-6
3.122e+1, 4.889e-6
3.124e+1, 4.894e-6
3.126e+1, 4.888e-6
3.128e+1, 4.870e-6
3.130e+1, 4.865e-6
3.132e+1, 4.847e-6
3.134e+1, 4.826e-6
3.136e+1, 4.837e-6
3.138e+1, 4.830e-6
3.140e+1, 4.824e-6
3.142e+1, 4.803e-6
3.144e+1, 4.758e-6
3.146e+1, 4.753e-6
3.148e+1, 4.710e-6
3.150e+1, 4.702e-6
3.152e+1, 4.657e-6
3.154e+1, 4.786e-6
3.156e+1, 4.924e-6
3.158e+1, 5.049e-6
3.160e+1, 5.076e-6
3.162e+1, 5.064e-6
3.164e+1, 5.011e-6
3.166e+1, 5.001e-6
3.168e+1, 5.008e-6
3.170e+1, 5.004e-6
3.172e+1, 5.004e-6
3.174e+1, 5.024e-6
3.176e+1, 5.030e-6
3.178e+1, 5.004e-6
3.180e+1, 4.953e-6
3.182e+1, 4.966e-6
3.184e+1, 4.967e-6
3.186e+1, 4.972e-6
3.188e+1, 4.956e-6
3.190e+1, 4.932e-6
3.192e+1, 4.891e-6
3.194e+1, 4.881e-6
3.196e+1, 4.860e-6
3.198e+1, 4.846e-6
3.200e+1, 4.827e-6
3.202e+1, 4.822e-6
3.204e+1, 4.811e-6
3.206e+1, 4.807e-6
3.208e+1, 4.833e-6
3.210e+1, 4.809e-6
3.212e+1, 4.778e-6
3.214e+1, 4.758e-6
3.216e+1, 4.777e-6
3.218e+1, 4.769e-6
3.220e+1, 4.771e-6
3.222e+1, 4.762e-6
3.224e+1, 4.764e-6
3.226e+1, 4.764e-6
3.228e+1, 4.757e-6
3.230e+1, 4.762e-6
3.232e+1, 4.757e-6
3.234e+1, 4.755e-6
3.236e+1, 4.770e-6
3.238e+1, 4.835e-6
3.240e+1, 4.967e-6
3.242e+1, 5.089e-6
3.244e+1, 5.100e-6
3.246e+1, 5.117e-6
3.248e+1, 5.105e-6
3.250e+1, 5.094e-6
3.252e+1, 5.065e-6
3.254e+1, 5.055e-6
3.256e+1, 5.093e-6
3.258e+1, 5.095e-6
3.260e+1, 5.105e-6
3.262e+1, 5.055e-6
3.264e+1, 5.029e-6
3.266e+1, 5.037e-6
3.268e+1, 5.048e-6
3.270e+1, 5.073e-6
3.272e+1, 5.094e-6
3.274e+1, 5.100e-6
3.276e+1, 5.039e-6
3.278e+1, 4.998e-6
3.280e+1, 4.987e-6
3.282e+1, 5.021e-6
3.284e+1, 5.010e-6
3.286e+1, 4.986e-6
3.288e+1, 4.975e-6
3.290e+1, 4.967e-6
3.292e+1, 4.946e-6
3.294e+1, 4.902e-6
3.296e+1, 4.929e-6
3.298e+1, 4.911e-6
3.300e+1, 4.912e-6
3.302e+1, 4.893e-6
3.304e+1, 4.903e-6
3.306e+1, 4.889e-6
3.308e+1, 4.831e-6
3.310e+1, 4.767e-6
3.312e+1, 4.765e-6
3.314e+1, 4.785e-6
3.316e+1, 4.798e-6
3.318e+1, 4.882e-6
3.320e+1, 4.996e-6
3.322e+1, 5.142e-6
3.324e+1, 5.218e-6
3.326e+1, 5.189e-6
3.328e+1, 5.216e-6
3.330e+1, 5.198e-6
3.332e+1, 5.164e-6
3.334e+1, 5.131e-6
3.336e+1, 5.076e-6
3.338e+1, 5.003e-6
3.340e+1, 4.968e-6
3.342e+1, 4.950e-6
3.344e+1, 5.014e-6
3.346e+1, 5.026e-6
3.348e+1, 5.027e-6
3.350e+1, 4.995e-6
3.352e+1, 5.028e-6
3.354e+1, 5.020e-6
3.356e+1, 5.034e-6
3.358e+1, 4.989e-6
3.360e+1, 4.910e-6
3.362e+1, 4.893e-6
3.364e+1, 4.892e-6
3.366e+1, 4.877e-6
3.368e+1, 4.865e-6
3.370e+1, 4.852e-6
3.372e+1, 4.852e-6
3.374e+1, 4.825e-6
3.376e+1, 4.789e-6
3.378e+1, 4.768e-6
3.380e+1, 4.766e-6
3.382e+1, 4.767e-6
3.384e+1, 4.746e-6
3.386e+1, 4.692e-6
3.388e+1, 4.700e-6
3.390e+1, 4.726e-6
3.392e+1, 4.730e-6
3.394e+1, 4.907e-6
3.396e+1, 5.085e-6
3.398e+1, 5.129e-6
3.400e+1, 5.162e-6
3.402e+1, 5.177e-6
3.404e+1, 5.128e-6
3.406e+1, 5.127e-6
3.408e+1, 5.066e-6
3.410e+1, 5.054e-6
3.412e+1, 5.056e-6
3.414e+1, 5.037e-6
3.416e+1, 5.008e-6
3.418e+1, 5.008e-6
3.420e+1, 5.016e-6
3.422e+1, 5.008e-6
3.424e+1, 5.007e-6
3.426e+1, 5.008e-6
3.428e+1, 5.031e-6
3.430e+1, 4.997e-6
3.432e+1, 4.942e-6
3.434e+1, 4.882e-6
3.436e+1, 4.859e-6
3.438e+1, 4.854e-6
3.440e+1, 4.853e-6
3.442e+1, 4.843e-6
3.444e+1, 4.844e-6
3.446e+1, 4.838e-6
3.448e+1, 4.836e-6
3.450e+1, 4.892e-6
3.452e+1, 4.972e-6
3.454e+1, 4.981e-6
3.456e+1, 4.915e-6
3.458e+1, 4.858e-6
3.460e+1, 4.845e-6
3.462e+1, 4.908e-6
3.464e+1, 4.844e-6
3.466e+1, 4.760e-6
3.468e+1, 4.720e-6
3.470e+1, 4.774e-6
3.472e+1, 5.057e-6
3.474e+1, 5.138e-6
3.476e+1, 5.202e-6
3.478e+1, 5.216e-6
3.480e+1, 5.181e-6
3.482e+1, 5.154e-6
3.484e+1, 5.149e-6
3.486e+1, 5.119e-6
3.488e+1, 5.027e-6
3.490e+1, 5.027e-6
3.492e+1, 5.050e-6
3.494e+1, 5.036e-6
3.496e+1, 4.993e-6
3.498e+1, 4.984e-6
3.500e+1, 5.003e-6
3.502e+1, 5.011e-6
3.504e+1, 5.003e-6
3.506e+1, 5.036e-6
3.508e+1, 4.970e-6
3.510e+1, 4.891e-6
3.512e+1, 4.864e-6
3.514e+1, 4.905e-6
3.516e+1, 4.904e-6
3.518e+1, 4.819e-6
3.520e+1, 4.779e-6
3.522e+1, 4.776e-6
3.524e+1, 4.772e-6
3.526e+1, 4.767e-6
3.528e+1, 4.716e-6
3.530e+1, 4.656e-6
3.532e+1, 4.653e-6
3.534e+1, 4.650e-6
3.536e+1, 4.659e-6
3.538e+1, 4.644e-6
3.540e+1, 4.639e-6
3.542e+1, 4.632e-6
3.544e+1, 4.611e-6
3.546e+1, 4.600e-6
3.548e+1, 4.611e-6
3.550e+1, 4.620e-6
3.552e+1, 4.766e-6
3.554e+1, 4.900e-6
3.556e+1, 4.953e-6
3.558e+1, 4.978e-6
3.560e+1, 4.919e-6
3.562e+1, 4.911e-6
3.564e+1, 4.908e-6
3.566e+1, 4.912e-6
3.568e+1, 4.914e-6
3.570e+1, 4.911e-6
3.572e+1, 4.902e-6
3.574e+1, 4.858e-6
3.576e+1, 4.775e-6
3.578e+1, 4.810e-6
3.580e+1, 4.831e-6
3.582e+1, 4.808e-6
3.584e+1, 4.780e-6
3.586e+1, 4.842e-6
3.588e+1, 4.846e-6
3.590e+1, 4.798e-6
3.592e+1, 4.764e-6
3.594e+1, 4.760e-6
3.596e+1, 4.754e-6
3.598e+1, 4.727e-6
3.600e+1, 4.714e-6
3.602e+1, 4.714e-6
3.604e+1, 4.731e-6
3.606e+1, 4.720e-6
3.608e+1, 4.749e-6
3.610e+1, 4.744e-6
3.612e+1, 4.716e-6
3.614e+1, 4.709e-6
3.616e+1, 4.728e-6
3.618e+1, 4.729e-6
3.620e+1, 4.714e-6
3.622e+1, 4.597e-6
3.624e+1, 4.599e-6
3.626e+1, 4.661e-6
3.628e+1, 4.699e-6
3.630e+1, 4.832e-6
3.632e+1, 4.911e-6
3.634e+1, 4.926e-6
3.636e+1, 4.930e-6
3.638e+1, 4.941e-6
3.640e+1, 4.938e-6
3.642e+1, 4.927e-6
3.644e+1, 4.910e-6
3.646e+1, 4.893e-6
3.648e+1, 4.872e-6
3.650e+1, 4.879e-6
3.652e+1, 4.897e-6
3.654e+1, 4.878e-6
3.656e+1, 4.900e-6
3.658e+1, 4.901e-6
3.660e+1, 4.903e-6
3.662e+1, 4.919e-6
3.664e+1, 4.935e-6
3.666e+1, 4.913e-6
3.668e+1, 4.850e-6
3.670e+1, 4.813e-6
3.672e+1, 4.805e-6
3.674e+1, 4.795e-6
3.676e+1, 4.777e-6
3.678e+1, 4.791e-6
3.680e+1, 4.790e-6
3.682e+1, 4.811e-6
3.684e+1, 4.847e-6
3.686e+1, 4.846e-6
3.688e+1, 4.827e-6
3.690e+1, 4.817e-6
3.692e+1, 4.831e-6
3.694e+1, 4.820e-6
3.696e+1, 4.761e-6
3.698e+1, 4.714e-6
3.700e+1, 4.747e-6
3.702e+1, 4.752e-6
3.704e+1, 4.850e-6
3.706e+1, 4.940e-6
3.708e+1, 4.970e-6
3.710e+1, 4.997e-6
3.712e+1, 5.046e-6
3.714e+1, 5.062e-6
3.716e+1, 4.997e-6
3.718e+1, 4.927e-6
3.720e+1, 4.899e-6
3.722e+1, 4.893e-6
3.724e+1, 4.879e-6
3.726e+1, 4.824e-6
3.728e+1, 4.806e-6
3.730e+1, 4.850e-6
3.732e+1, 4.877e-6
3.734e+1, 4.883e-6
3.736e+1, 4.906e-6
3.738e+1, 4.871e-6
3.740e+1, 4.795e-6
3.742e+1, 4.775e-6
3.744e+1, 4.774e-6
3.746e+1, 4.777e-6
3.748e+1, 4.767e-6
3.750e+1, 4.758e-6
3.752e+1, 4.750e-6
3.754e+1, 4.731e-6
3.756e+1, 4.732e-6
3.758e+1, 4.724e-6
3.760e+1, 4.717e-6
3.762e+1, 4.708e-6
3.764e+1, 4.689e-6
3.766e+1, 4.671e-6
3.768e+1, 4.642e-6
3.770e+1, 4.590e-6
3.772e+1, 4.564e-6
3.774e+1, 4.563e-6
3.776e+1, 4.626e-6
3.778e+1, 4.800e-6
3.780e+1, 4.851e-6
3.782e+1, 4.914e-6
3.784e+1, 4.940e-6
3.786e+1, 4.954e-6
3.788e+1, 4.969e-6
3.790e+1, 4.944e-6
3.792e+1, 4.900e-6
3.794e+1, 4.894e-6
3.796e+1, 4.913e-6
3.798e+1, 4.900e-6
3.800e+1, 4.834e-6
3.802e+1, 4.801e-6
3.804e+1, 4.846e-6
3.806e+1, 4.891e-6
3.808e+1, 4.896e-6
3.810e+1, 4.890e-6
3.812e+1, 4.848e-6
3.814e+1, 4.826e-6
3.816e+1, 4.804e-6
3.818e+1, 4.808e-6
3.820e+1, 4.800e-6
3.822e+1, 4.808e-6
3.824e+1, 4.788e-6
3.826e+1, 4.780e-6
3.828e+1, 4.790e-6
3.830e+1, 4.797e-6
3.832e+1, 4.795e-6
3.834e+1, 4.789e-6
3.836e+1, 4.786e-6
3.838e+1, 4.778e-6
3.840e+1, 4.779e-6
3.842e+1, 4.774e-6
3.844e+1, 4.727e-6
3.846e+1, 4.723e-6
3.848e+1, 4.747e-6
3.850e+1, 4.776e-6
3.852e+1, 4.900e-6
3.854e+1, 5.021e-6
3.856e+1, 5.072e-6
3.858e+1, 5.048e-6
3.860e+1, 5.052e-6
3.862e+1, 5.046e-6
3.864e+1, 5.044e-6
3.866e+1, 5.032e-6
3.868e+1, 5.028e-6
3.870e+1, 5.047e-6
3.872e+1, 5.036e-6
3.874e+1, 4.996e-6
3.876e+1, 4.971e-6
3.878e+1, 5.006e-6
3.880e+1, 5.011e-6
3.882e+1, 4.979e-6
3.884e+1, 4.969e-6
3.886e+1, 4.967e-6
3.888e+1, 4.961e-6
3.890e+1, 4.943e-6
3.892e+1, 4.922e-6
3.894e+1, 4.912e-6
3.896e+1, 4.907e-6
3.898e+1, 4.890e-6
3.900e+1, 4.873e-6
3.902e+1, 4.846e-6
3.904e+1, 4.850e-6
3.906e+1, 4.832e-6
3.908e+1, 4.827e-6
3.910e+1, 4.837e-6
3.912e+1, 4.812e-6
3.914e+1, 4.775e-6
3.916e+1, 4.757e-6
3.918e+1, 4.726e-6
3.920e+1, 4.687e-6
3.922e+1, 4.746e-6
3.924e+1, 4.739e-6
3.926e+1, 4.759e-6
3.928e+1, 4.913e-6
3.930e+1, 4.974e-6
3.932e+1, 4.921e-6
3.934e+1, 4.916e-6
3.936e+1, 4.910e-6
3.938e+1, 4.906e-6
3.940e+1, 4.914e-6
3.942e+1, 4.899e-6
3.944e+1, 4.880e-6
3.946e+1, 4.867e-6
3.948e+1, 4.796e-6
3.950e+1, 4.800e-6
3.952e+1, 4.800e-6
3.954e+1, 4.824e-6
3.956e+1, 4.881e-6
3.958e+1, 4.931e-6
3.960e+1, 4.959e-6
3.962e+1, 4.969e-6
3.964e+1, 4.988e-6
3.966e+1, 4.979e-6
3.968e+1, 4.993e-6
3.970e+1, 4.982e-6
3.972e+1, 4.931e-6
3.974e+1, 4.899e-6
3.976e+1, 4.909e-6
3.978e+1, 4.926e-6
3.980e+1, 4.927e-6
3.982e+1, 4.914e-6
3.984e+1, 4.891e-6
3.986e+1, 4.877e-6
3.988e+1, 4.867e-6
3.990e+1, 4.859e-6
3.992e+1, 4.824e-6
3.994e+1, 4.819e-6
3.996e+1, 4.824e-6
3.998e+1, 4.912e-6
4.000e+1, 5.046e-6
4.002e+1, 5.132e-6
4.004e+1, 5.201e-6
4.006e+1, 5.242e-6
4.008e+1, 5.209e-6
4.010e+1, 5.188e-6
4.012e+1, 5.095e-6
4.014e+1, 5.063e-6
4.016e+1, 5.058e-6
4.018e+1, 5.039e-6
4.020e+1, 5.039e-6
4.022e+1, 5.006e-6
4.024e+1, 5.035e-6
4.026e+1, 5.073e-6
4.028e+1, 5.061e-6
4.030e+1, 5.065e-6
4.032e+1, 5.060e-6
4.034e+1, 5.052e-6
4.036e+1, 5.007e-6
4.038e+1, 4.934e-6
4.040e+1, 4.901e-6
4.042e+1, 4.895e-6
4.044e+1, 4.882e-6
4.046e+1, 4.865e-6
4.048e+1, 4.883e-6
4.050e+1, 4.885e-6
4.052e+1, 4.869e-6
4.054e+1, 4.855e-6
4.056e+1, 4.843e-6
4.058e+1, 4.842e-6
4.060e+1, 4.832e-6
4.062e+1, 4.791e-6
4.064e+1, 4.780e-6
4.066e+1, 4.788e-6
4.068e+1, 4.774e-6
4.070e+1, 4.763e-6
4.072e+1, 4.730e-6
4.074e+1, 4.797e-6
4.076e+1, 4.918e-6
4.078e+1, 5.026e-6
4.080e+1, 5.055e-6
4.082e+1, 5.055e-6
4.084e+1, 5.070e-6
4.086e+1, 5.060e-6
4.088e+1, 5.055e-6
4.090e+1, 5.061e-6
4.092e+1, 5.077e-6
4.094e+1, 5.084e-6
4.096e+1, 5.075e-6
4.098e+1, 5.062e-6
4.100e+1, 5.019e-6
4.102e+1, 5.038e-6
4.104e+1, 5.040e-6
4.106e+1, 5.008e-6
4.108e+1, 5.014e-6
4.110e+1, 5.039e-6
4.112e+1, 5.004e-6
4.114e+1, 4.937e-6
4.116e+1, 4.875e-6
4.118e+1, 4.847e-6
4.120e+1, 4.859e-6
4.122e+1, 4.862e-6
4.124e+1, 4.841e-6
4.126e+1, 4.834e-6
4.128e+1, 4.799e-6
4.130e+1, 4.806e-6
4.132e+1, 4.808e-6
4.134e+1, 4.811e-6
4.136e+1, 4.773e-6
4.138e+1, 4.711e-6
4.140e+1, 4.686e-6
4.142e+1, 4.688e-6
4.144e+1, 4.692e-6
4.146e+1, 4.677e-6
4.148e+1, 4.663e-6
4.150e+1, 4.689e-6
4.152e+1, 4.793e-6
4.154e+1, 4.957e-6
4.156e+1, 5.057e-6
4.158e+1, 5.077e-6
4.160e+1, 5.082e-6
4.162e+1, 5.087e-6
4.164e+1, 5.081e-6
4.166e+1, 5.078e-6
4.168e+1, 5.089e-6
4.170e+1, 5.091e-6
4.172e+1, 5.102e-6
4.174e+1, 5.094e-6
4.176e+1, 5.039e-6
4.178e+1, 5.047e-6
4.180e+1, 5.065e-6
4.182e+1, 5.068e-6
4.184e+1, 5.075e-6
4.186e+1, 5.071e-6
4.188e+1, 5.002e-6
4.190e+1, 4.952e-6
4.192e+1, 4.936e-6
4.194e+1, 4.943e-6
4.196e+1, 4.895e-6
4.198e+1, 4.870e-6
4.200e+1, 4.867e-6
4.202e+1, 4.873e-6
4.204e+1, 4.886e-6
4.206e+1, 4.867e-6
4.208e+1, 4.849e-6
4.210e+1, 4.846e-6
4.212e+1, 4.861e-6
4.214e+1, 4.856e-6
4.216e+1, 4.845e-6
4.218e+1, 4.825e-6
4.220e+1, 4.812e-6
4.222e+1, 4.790e-6
4.224e+1, 4.740e-6
4.226e+1, 4.705e-6
4.228e+1, 4.690e-6
4.230e+1, 4.765e-6
4.232e+1, 4.948e-6
4.234e+1, 5.040e-6
4.236e+1, 5.072e-6
4.238e+1, 5.090e-6
4.240e+1, 5.085e-6
4.242e+1, 5.076e-6
4.244e+1, 5.048e-6
4.246e+1, 5.015e-6
4.248e+1, 5.005e-6
4.250e+1, 5.013e-6
4.252e+1, 5.027e-6
4.254e+1, 5.015e-6
4.256e+1, 4.972e-6
4.258e+1, 4.975e-6
4.260e+1, 4.980e-6
4.262e+1, 4.989e-6
4.264e+1, 4.993e-6
4.266e+1, 4.989e-6
4.268e+1, 4.969e-6
4.270e+1, 4.966e-6
4.272e+1, 4.958e-6
4.274e+1, 4.957e-6
4.276e+1, 4.947e-6
4.278e+1, 4.903e-6
4.280e+1, 4.862e-6
4.282e+1, 4.849e-6
4.284e+1, 4.830e-6
4.286e+1, 4.844e-6
4.288e+1, 4.825e-6
4.290e+1, 4.811e-6
4.292e+1, 4.803e-6
4.294e+1, 4.792e-6
4.296e+1, 4.725e-6
4.298e+1, 4.705e-6
4.300e+1, 4.664e-6
4.302e+1, 4.650e-6
4.304e+1, 4.658e-6
4.306e+1, 4.667e-6
4.308e+1, 4.654e-6
4.310e+1, 4.762e-6
4.312e+1, 4.863e-6
4.314e+1, 4.897e-6
4.316e+1, 4.934e-6
4.318e+1, 4.963e-6
4.320e+1, 5.006e-6
4.322e+1, 4.942e-6
4.324e+1, 4.855e-6
4.326e+1, 4.798e-6
4.328e+1, 4.782e-6
4.330e+1, 4.794e-6
4.332e+1, 4.772e-6
4.334e+1, 4.776e-6
4.336e+1, 4.796e-6
4.338e+1, 4.821e-6
4.340e+1, 4.850e-6
4.342e+1, 4.906e-6
4.344e+1, 4.929e-6
4.346e+1, 4.927e-6
4.348e+1, 4.902e-6
4.350e+1, 4.861e-6
4.352e+1, 4.886e-6
4.354e+1, 4.916e-6
4.356e+1, 4.887e-6
4.358e+1, 4.850e-6
4.360e+1, 4.829e-6
4.362e+1, 4.819e-6
4.364e+1, 4.817e-6
4.366e+1, 4.810e-6
4.368e+1, 4.781e-6
4.370e+1, 4.709e-6
4.372e+1, 4.699e-6
4.374e+1, 4.688e-6
4.376e+1, 4.666e-6
4.378e+1, 4.647e-6
4.380e+1, 4.646e-6
4.382e+1, 4.671e-6
4.384e+1, 4.826e-6
4.386e+1, 4.989e-6
4.388e+1, 5.074e-6
4.390e+1, 5.074e-6
4.392e+1, 5.092e-6
4.394e+1, 5.085e-6
4.396e+1, 5.087e-6
4.398e+1, 5.090e-6
4.400e+1, 5.090e-6
4.402e+1, 5.091e-6
4.404e+1, 5.068e-6
4.406e+1, 4.943e-6
4.408e+1, 4.923e-6
4.410e+1, 4.937e-6
4.412e+1, 4.936e-6
4.414e+1, 4.958e-6
4.416e+1, 4.977e-6
4.418e+1, 4.983e-6
4.420e+1, 4.977e-6
4.422e+1, 4.908e-6
4.424e+1, 4.883e-6
4.426e+1, 4.884e-6
4.428e+1, 4.868e-6
4.430e+1, 4.805e-6
4.432e+1, 4.800e-6
4.434e+1, 4.804e-6
4.436e+1, 4.805e-6
4.438e+1, 4.806e-6
4.440e+1, 4.790e-6
4.442e+1, 4.786e-6
4.444e+1, 4.810e-6
4.446e+1, 4.918e-6
4.448e+1, 4.973e-6
4.450e+1, 4.850e-6
4.452e+1, 4.759e-6
4.454e+1, 4.762e-6
4.456e+1, 4.764e-6
4.458e+1, 4.946e-6
4.460e+1, 5.150e-6
4.462e+1, 5.163e-6
4.464e+1, 5.073e-6
4.466e+1, 5.074e-6
4.468e+1, 5.070e-6
4.470e+1, 5.081e-6
4.472e+1, 5.083e-6
4.474e+1, 5.069e-6
4.476e+1, 5.041e-6
4.478e+1, 5.041e-6
4.480e+1, 5.033e-6
4.482e+1, 4.961e-6
4.484e+1, 4.977e-6
4.486e+1, 5.005e-6
4.488e+1, 4.991e-6
4.490e+1, 4.967e-6
4.492e+1, 4.949e-6
4.494e+1, 4.957e-6
4.496e+1, 4.945e-6
4.498e+1, 4.934e-6
4.500e+1, 4.909e-6
4.502e+1, 4.877e-6
4.504e+1, 4.856e-6
4.506e+1, 4.760e-6
4.508e+1, 4.732e-6
4.510e+1, 4.726e-6
4.512e+1, 4.723e-6
4.514e+1, 4.706e-6
4.516e+1, 4.657e-6
4.518e+1, 4.643e-6
4.520e+1, 4.648e-6
4.522e+1, 4.652e-6
4.524e+1, 4.655e-6
4.526e+1, 4.616e-6
4.528e+1, 4.581e-6
4.530e+1, 4.572e-6
4.532e+1, 4.580e-6
4.534e+1, 4.623e-6
4.536e+1, 4.761e-6
4.538e+1, 4.829e-6
4.540e+1, 4.874e-6
4.542e+1, 4.868e-6
4.544e+1, 4.844e-6
4.546e+1, 4.793e-6
4.548e+1, 4.767e-6
4.550e+1, 4.769e-6
4.552e+1, 4.747e-6
4.554e+1, 4.759e-6
4.556e+1, 4.769e-6
4.558e+1, 4.711e-6
4.560e+1, 4.706e-6
4.562e+1, 4.706e-6
4.564e+1, 4.768e-6
4.566e+1, 4.799e-6
4.568e+1, 4.818e-6
4.570e+1, 4.826e-6
4.572e+1, 4.758e-6
4.574e+1, 4.703e-6
4.576e+1, 4.662e-6
4.578e+1, 4.710e-6
4.580e+1, 4.743e-6
4.582e+1, 4.679e-6
4.584e+1, 4.652e-6
4.586e+1, 4.652e-6
4.588e+1, 4.651e-6
4.590e+1, 4.646e-6
4.592e+1, 4.646e-6
4.594e+1, 4.645e-6
4.596e+1, 4.644e-6
4.598e+1, 4.637e-6
4.600e+1, 4.624e-6
4.602e+1, 4.611e-6
4.604e+1, 4.602e-6
4.606e+1, 4.584e-6
4.608e+1, 4.659e-6
4.610e+1, 4.711e-6
4.612e+1, 4.722e-6
4.614e+1, 4.739e-6
4.616e+1, 4.767e-6
4.618e+1, 4.775e-6
4.620e+1, 4.761e-6
4.622e+1, 4.757e-6
4.624e+1, 4.761e-6
4.626e+1, 4.758e-6
4.628e+1, 4.761e-6
4.630e+1, 4.698e-6
4.632e+1, 4.693e-6
4.634e+1, 4.716e-6
4.636e+1, 4.770e-6
4.638e+1, 4.787e-6
4.640e+1, 4.730e-6
4.642e+1, 4.755e-6
4.644e+1, 4.748e-6
4.646e+1, 4.754e-6
4.648e+1, 4.745e-6
4.650e+1, 4.710e-6
4.652e+1, 4.658e-6
4.654e+1, 4.648e-6
4.656e+1, 4.646e-6
4.658e+1, 4.653e-6
4.660e+1, 4.627e-6
4.662e+1, 4.629e-6
4.664e+1, 4.605e-6
4.666e+1, 4.600e-6
4.668e+1, 4.601e-6
4.670e+1, 4.599e-6
4.672e+1, 4.574e-6
4.674e+1, 4.545e-6
4.676e+1, 4.560e-6
4.678e+1, 4.645e-6
4.680e+1, 4.799e-6
4.682e+1, 4.837e-6
4.684e+1, 4.810e-6
4.686e+1, 4.802e-6
4.688e+1, 4.803e-6
4.690e+1, 4.796e-6
4.692e+1, 4.780e-6
4.694e+1, 4.781e-6
4.696e+1, 4.776e-6
4.698e+1, 4.772e-6
4.700e+1, 4.751e-6
4.702e+1, 4.722e-6
4.704e+1, 4.729e-6
4.706e+1, 4.732e-6
4.708e+1, 4.737e-6
4.710e+1, 4.744e-6
4.712e+1, 4.757e-6
4.714e+1, 4.780e-6
4.716e+1, 4.760e-6
4.718e+1, 4.659e-6
4.720e+1, 4.641e-6
4.722e+1, 4.629e-6
4.724e+1, 4.632e-6
4.726e+1, 4.649e-6
4.728e+1, 4.598e-6
4.730e+1, 4.562e-6
4.732e+1, 4.552e-6
4.734e+1, 4.551e-6
4.736e+1, 4.561e-6
4.738e+1, 4.562e-6
4.740e+1, 4.560e-6
4.742e+1, 4.498e-6
4.744e+1, 4.421e-6
4.746e+1, 4.421e-6
4.748e+1, 4.478e-6
4.750e+1, 4.593e-6
4.752e+1, 4.761e-6
4.754e+1, 4.801e-6
4.756e+1, 4.825e-6
4.758e+1, 4.877e-6
4.760e+1, 4.884e-6
4.762e+1, 4.855e-6
4.764e+1, 4.787e-6
4.766e+1, 4.767e-6
4.768e+1, 4.751e-6
4.770e+1, 4.760e-6
4.772e+1, 4.744e-6
4.774e+1, 4.693e-6
4.776e+1, 4.718e-6
4.778e+1, 4.739e-6
4.780e+1, 4.749e-6
4.782e+1, 4.736e-6
4.784e+1, 4.749e-6
4.786e+1, 4.743e-6
4.788e+1, 4.742e-6
4.790e+1, 4.706e-6
4.792e+1, 4.681e-6
4.794e+1, 4.647e-6
4.796e+1, 4.646e-6
4.798e+1, 4.662e-6
4.800e+1, 4.671e-6
4.802e+1, 4.657e-6
4.804e+1, 4.606e-6
4.806e+1, 4.596e-6
4.808e+1, 4.544e-6
4.810e+1, 4.536e-6
4.812e+1, 4.533e-6
4.814e+1, 4.539e-6
4.816e+1, 4.535e-6
4.818e+1, 4.472e-6
4.820e+1, 4.461e-6
4.822e+1, 4.490e-6
4.824e+1, 4.620e-6
4.826e+1, 4.759e-6
4.828e+1, 4.824e-6
4.830e+1, 4.880e-6
4.832e+1, 4.870e-6
4.834e+1, 4.851e-6
4.836e+1, 4.855e-6
4.838e+1, 4.813e-6
4.840e+1, 4.793e-6
4.842e+1, 4.788e-6
4.844e+1, 4.770e-6
4.846e+1, 4.706e-6
4.848e+1, 4.631e-6
4.850e+1, 4.658e-6
4.852e+1, 4.671e-6
4.854e+1, 4.677e-6
4.856e+1, 4.703e-6
4.858e+1, 4.720e-6
4.860e+1, 4.724e-6
4.862e+1, 4.682e-6
4.864e+1, 4.634e-6
4.866e+1, 4.594e-6
4.868e+1, 4.593e-6
4.870e+1, 4.572e-6
4.872e+1, 4.525e-6
4.874e+1, 4.521e-6
4.876e+1, 4.512e-6
4.878e+1, 4.514e-6
4.880e+1, 4.502e-6
4.882e+1, 4.447e-6
4.884e+1, 4.442e-6
4.886e+1, 4.382e-6
4.888e+1, 4.281e-6
4.890e+1, 4.224e-6
4.892e+1, 4.212e-6
4.894e+1, 4.221e-6
4.896e+1, 4.378e-6
4.898e+1, 4.490e-6
4.900e+1, 4.581e-6
4.902e+1, 4.628e-6
4.904e+1, 4.617e-6
4.906e+1, 4.590e-6
4.908e+1, 4.560e-6
4.910e+1, 4.559e-6
4.912e+1, 4.593e-6
4.914e+1, 4.606e-6
4.916e+1, 4.589e-6
4.918e+1, 4.544e-6
4.920e+1, 4.558e-6
4.922e+1, 4.566e-6
4.924e+1, 4.578e-6
4.926e+1, 4.603e-6
4.928e+1, 4.635e-6
4.930e+1, 4.677e-6
4.932e+1, 4.681e-6
4.934e+1, 4.619e-6
4.936e+1, 4.661e-6
4.938e+1, 4.652e-6
4.940e+1, 4.621e-6
4.942e+1, 4.597e-6
4.944e+1, 4.587e-6
4.946e+1, 4.566e-6
4.948e+1, 4.554e-6
4.950e+1, 4.532e-6
4.952e+1, 4.490e-6
4.954e+1, 4.477e-6
4.956e+1, 4.450e-6
4.958e+1, 4.436e-6
4.960e+1, 4.441e-6
4.962e+1, 4.409e-6
4.964e+1, 4.404e-6
4.966e+1, 4.353e-6
4.968e+1, 4.355e-6
4.970e+1, 4.507e-6
4.972e+1, 4.693e-6
4.974e+1, 4.706e-6
4.976e+1, 4.772e-6
4.978e+1, 4.788e-6
4.980e+1, 4.782e-6
4.982e+1, 4.784e-6
4.984e+1, 4.783e-6
4.986e+1, 4.777e-6
4.988e+1, 4.779e-6
4.990e+1, 4.779e-6
4.992e+1, 4.744e-6
4.994e+1, 4.697e-6
4.996e+1, 4.703e-6
4.998e+1, 4.708e-6
5.000e+1, 4.708e-6
5.002e+1, 4.714e-6
5.004e+1, 4.725e-6
5.006e+1, 4.682e-6
5.008e+1, 4.645e-6
5.010e+1, 4.621e-6
5.012e+1, 4.622e-6
5.014e+1, 4.547e-6
5.016e+1, 4.534e-6
5.018e+1, 4.537e-6
5.020e+1, 4.551e-6
5.022e+1, 4.531e-6
5.024e+1, 4.477e-6
5.026e+1, 4.458e-6
5.028e+1, 4.458e-6
5.030e+1, 4.449e-6
5.032e+1, 4.447e-6
5.034e+1, 4.456e-6
5.036e+1, 4.458e-6
5.038e+1, 4.459e-6
5.040e+1, 4.452e-6
5.042e+1, 4.464e-6
5.044e+1, 4.468e-6
5.046e+1, 4.501e-6
5.048e+1, 4.666e-6
5.050e+1, 4.731e-6
5.052e+1, 4.793e-6
5.054e+1, 4.799e-6
5.056e+1, 4.790e-6
5.058e+1, 4.771e-6
5.060e+1, 4.774e-6
5.062e+1, 4.774e-6
5.064e+1, 4.774e-6
5.066e+1, 4.768e-6
5.068e+1, 4.737e-6
5.070e+1, 4.689e-6
5.072e+1, 4.671e-6
5.074e+1, 4.676e-6
5.076e+1, 4.676e-6
5.078e+1, 4.690e-6
5.080e+1, 4.693e-6
5.082e+1, 4.687e-6
5.084e+1, 4.640e-6
5.086e+1, 4.560e-6
5.088e+1, 4.567e-6
5.090e+1, 4.578e-6
5.092e+1, 4.575e-6
5.094e+1, 4.564e-6
5.096e+1, 4.502e-6
5.098e+1, 4.452e-6
5.100e+1, 4.449e-6
5.102e+1, 4.445e-6
5.104e+1, 4.432e-6
5.106e+1, 4.414e-6
5.108e+1, 4.400e-6
5.110e+1, 4.380e-6
5.112e+1, 4.373e-6
5.114e+1, 4.364e-6
5.116e+1, 4.329e-6
5.118e+1, 4.283e-6
5.120e+1, 4.296e-6
5.122e+1, 4.327e-6
5.124e+1, 4.342e-6
5.126e+1, 4.503e-6
5.128e+1, 4.617e-6
5.130e+1, 4.670e-6
5.132e+1, 4.689e-6
5.134e+1, 4.689e-6
5.136e+1, 4.695e-6
5.138e+1, 4.683e-6
5.140e+1, 4.658e-6
5.142e+1, 4.655e-6
5.144e+1, 4.653e-6
5.146e+1, 4.622e-6
5.148e+1, 4.588e-6
5.150e+1, 4.557e-6
5.152e+1, 4.589e-6
5.154e+1, 4.602e-6
5.156e+1, 4.605e-6
5.158e+1, 4.607e-6
5.160e+1, 4.598e-6
5.162e+1, 4.598e-6
5.164e+1, 4.590e-6
5.166e+1, 4.570e-6
5.168e+1, 4.487e-6
5.170e+1, 4.454e-6
5.172e+1, 4.463e-6
5.174e+1, 4.492e-6
5.176e+1, 4.489e-6
5.178e+1, 4.488e-6
5.180e+1, 4.497e-6
5.182e+1, 4.502e-6
5.184e+1, 4.520e-6
5.186e+1, 4.591e-6
5.188e+1, 4.616e-6
5.190e+1, 4.616e-6
5.192e+1, 4.612e-6
5.194e+1, 4.591e-6
5.196e+1, 4.572e-6
5.198e+1, 4.549e-6
5.200e+1, 4.481e-6
5.202e+1, 4.457e-6
5.204e+1, 4.469e-6
5.206e+1, 4.578e-6
5.208e+1, 4.655e-6
5.210e+1, 4.743e-6
5.212e+1, 4.769e-6
5.214e+1, 4.848e-6
5.216e+1, 4.849e-6
5.218e+1, 4.842e-6
5.220e+1, 4.810e-6
5.222e+1, 4.786e-6
5.224e+1, 4.803e-6
5.226e+1, 4.841e-6
5.228e+1, 4.819e-6
5.230e+1, 4.728e-6
5.232e+1, 4.743e-6
5.234e+1, 4.759e-6
5.236e+1, 4.775e-6
5.238e+1, 4.778e-6
5.240e+1, 4.816e-6
5.242e+1, 4.814e-6
5.244e+1, 4.781e-6
5.246e+1, 4.775e-6
5.248e+1, 4.777e-6
5.250e+1, 4.773e-6
5.252e+1, 4.748e-6
5.254e+1, 4.741e-6
5.256e+1, 4.705e-6
5.258e+1, 4.668e-6
5.260e+1, 4.647e-6
5.262e+1, 4.595e-6
5.264e+1, 4.589e-6
5.266e+1, 4.577e-6
5.268e+1, 4.566e-6
5.270e+1, 4.541e-6
5.272e+1, 4.533e-6
5.274e+1, 4.522e-6
5.276e+1, 4.512e-6
5.278e+1, 4.487e-6
5.280e+1, 4.422e-6
5.282e+1, 4.415e-6
5.284e+1, 4.420e-6
5.286e+1, 4.551e-6
5.288e+1, 4.692e-6
5.290e+1, 4.751e-6
5.292e+1, 4.788e-6
5.294e+1, 4.787e-6
5.296e+1, 4.785e-6
5.298e+1, 4.789e-6
5.300e+1, 4.796e-6
5.302e+1, 4.798e-6
5.304e+1, 4.818e-6
5.306e+1, 4.834e-6
5.308e+1, 4.786e-6
5.310e+1, 4.738e-6
5.312e+1, 4.738e-6
5.314e+1, 4.764e-6
5.316e+1, 4.776e-6
5.318e+1, 4.769e-6
5.320e+1, 4.730e-6
5.322e+1, 4.716e-6
5.324e+1, 4.703e-6
5.326e+1, 4.698e-6
5.328e+1, 4.693e-6
5.330e+1, 4.654e-6
5.332e+1, 4.624e-6
5.334e+1, 4.587e-6
5.336e+1, 4.561e-6
5.338e+1, 4.551e-6
5.340e+1, 4.528e-6
5.342e+1, 4.506e-6
5.344e+1, 4.504e-6
5.346e+1, 4.520e-6
5.348e+1, 4.533e-6
5.350e+1, 4.520e-6
5.352e+1, 4.514e-6
5.354e+1, 4.515e-6
5.356e+1, 4.512e-6
5.358e+1, 4.522e-6
5.360e+1, 4.519e-6
5.362e+1, 4.509e-6
5.364e+1, 4.514e-6
5.366e+1, 4.517e-6
5.368e+1, 4.635e-6
5.370e+1, 4.782e-6
5.372e+1, 4.886e-6
5.374e+1, 4.927e-6
5.376e+1, 4.932e-6
5.378e+1, 4.921e-6
5.380e+1, 4.900e-6
5.382e+1, 4.871e-6
5.384e+1, 4.843e-6
5.386e+1, 4.850e-6
5.388e+1, 4.850e-6
5.390e+1, 4.851e-6
5.392e+1, 4.752e-6
5.394e+1, 4.753e-6
5.396e+1, 4.766e-6
5.398e+1, 4.778e-6
5.400e+1, 4.792e-6
5.402e+1, 4.808e-6
5.404e+1, 4.813e-6
5.406e+1, 4.786e-6
5.408e+1, 4.767e-6
5.410e+1, 4.751e-6
5.412e+1, 4.747e-6
5.414e+1, 4.704e-6
5.416e+1, 4.653e-6
5.418e+1, 4.623e-6
5.420e+1, 4.610e-6
5.422e+1, 4.600e-6
5.424e+1, 4.576e-6
5.426e+1, 4.552e-6
5.428e+1, 4.535e-6
5.430e+1, 4.528e-6
5.432e+1, 4.517e-6
5.434e+1, 4.514e-6
5.436e+1, 4.515e-6
5.438e+1, 4.505e-6
5.440e+1, 4.485e-6
5.442e+1, 4.470e-6
5.444e+1, 4.403e-6
5.446e+1, 4.373e-6
5.448e+1, 4.321e-6
5.450e+1, 4.323e-6
5.452e+1, 4.493e-6
5.454e+1, 4.696e-6
5.456e+1, 4.774e-6
5.458e+1, 4.762e-6
5.460e+1, 4.759e-6
5.462e+1, 4.754e-6
5.464e+1, 4.758e-6
5.466e+1, 4.739e-6
5.468e+1, 4.729e-6
5.470e+1, 4.710e-6
5.472e+1, 4.697e-6
5.474e+1, 4.662e-6
5.476e+1, 4.607e-6
5.478e+1, 4.610e-6
5.480e+1, 4.621e-6
5.482e+1, 4.631e-6
5.484e+1, 4.633e-6
5.486e+1, 4.625e-6
5.488e+1, 4.632e-6
5.490e+1, 4.579e-6
5.492e+1, 4.555e-6
5.494e+1, 4.511e-6
5.496e+1, 4.532e-6
5.498e+1, 4.534e-6
5.500e+1, 4.532e-6
5.502e+1, 4.529e-6
5.504e+1, 4.525e-6
5.506e+1, 4.519e-6
5.508e+1, 4.524e-6
5.510e+1, 4.547e-6
5.512e+1, 4.575e-6
5.514e+1, 4.590e-6
5.516e+1, 4.587e-6
5.518e+1, 4.578e-6
5.520e+1, 4.565e-6
5.522e+1, 4.542e-6
5.524e+1, 4.530e-6
5.526e+1, 4.527e-6
5.528e+1, 4.533e-6
5.530e+1, 4.631e-6
5.532e+1, 4.698e-6
5.534e+1, 4.689e-6
5.536e+1, 4.779e-6
5.538e+1, 4.818e-6
5.540e+1, 4.821e-6
5.542e+1, 4.724e-6
5.544e+1, 4.682e-6
5.546e+1, 4.678e-6
5.548e+1, 4.674e-6
5.550e+1, 4.653e-6
5.552e+1, 4.620e-6
5.554e+1, 4.661e-6
5.556e+1, 4.687e-6
5.558e+1, 4.716e-6
5.560e+1, 4.717e-6
5.562e+1, 4.706e-6
5.564e+1, 4.666e-6
5.566e+1, 4.659e-6
5.568e+1, 4.652e-6
5.570e+1, 4.630e-6
5.572e+1, 4.597e-6
5.574e+1, 4.536e-6
5.576e+1, 4.517e-6
5.578e+1, 4.512e-6
5.580e+1, 4.502e-6
5.582e+1, 4.484e-6
5.584e+1, 4.469e-6
5.586e+1, 4.395e-6
5.588e+1, 4.385e-6
5.590e+1, 4.371e-6
5.592e+1, 4.386e-6
5.594e+1, 4.399e-6
5.596e+1, 4.379e-6
5.598e+1, 4.353e-6
5.600e+1, 4.373e-6
5.602e+1, 4.403e-6
5.604e+1, 4.487e-6
5.606e+1, 4.676e-6
5.608e+1, 4.734e-6
5.610e+1, 4.734e-6
5.612e+1, 4.749e-6
5.614e+1, 4.757e-6
5.616e+1, 4.745e-6
5.618e+1, 4.748e-6
5.620e+1, 4.739e-6
5.622e+1, 4.745e-6
5.624e+1, 4.738e-6
5.626e+1, 4.728e-6
5.628e+1, 4.671e-6
5.630e+1, 4.663e-6
5.632e+1, 4.671e-6
5.634e+1, 4.680e-6
5.636e+1, 4.683e-6
5.638e+1, 4.689e-6
5.640e+1, 4.717e-6
5.642e+1, 4.714e-6
5.644e+1, 4.668e-6
5.646e+1, 4.637e-6
5.648e+1, 4.640e-6
5.650e+1, 4.638e-6
5.652e+1, 4.601e-6
5.654e+1, 4.544e-6
5.656e+1, 4.542e-6
5.658e+1, 4.546e-6
5.660e+1, 4.534e-6
5.662e+1, 4.503e-6
5.664e+1, 4.490e-6
5.666e+1, 4.485e-6
5.668e+1, 4.484e-6
5.670e+1, 4.475e-6
5.672e+1, 4.466e-6
5.674e+1, 4.439e-6
5.676e+1, 4.432e-6
5.678e+1, 4.432e-6
5.680e+1, 4.448e-6
5.682e+1, 4.527e-6
5.684e+1, 4.727e-6
5.686e+1, 4.825e-6
5.688e+1, 4.943e-6
5.690e+1, 4.972e-6
5.692e+1, 4.935e-6
5.694e+1, 4.885e-6
5.696e+1, 4.852e-6
5.698e+1, 4.865e-6
5.700e+1, 4.849e-6
5.702e+1, 4.842e-6
5.704e+1, 4.796e-6
5.706e+1, 4.700e-6
5.708e+1, 4.752e-6
5.710e+1, 4.771e-6
5.712e+1, 4.776e-6
5.714e+1, 4.796e-6
5.716e+1, 4.783e-6
5.718e+1, 4.775e-6
5.720e+1, 4.755e-6
5.722e+1, 4.742e-6
5.724e+1, 4.717e-6
5.726e+1, 4.663e-6
5.728e+1, 4.655e-6
5.730e+1, 4.618e-6
5.732e+1, 4.563e-6
5.734e+1, 4.560e-6
5.736e+1, 4.558e-6
5.738e+1, 4.571e-6
5.740e+1, 4.571e-6
5.742e+1, 4.568e-6
5.744e+1, 4.559e-6
5.746e+1, 4.559e-6
5.748e+1, 4.562e-6
5.750e+1, 4.539e-6
5.752e+1, 4.521e-6
5.754e+1, 4.503e-6
5.756e+1, 4.510e-6
5.758e+1, 4.534e-6
5.760e+1, 4.714e-6
5.762e+1, 4.846e-6
5.764e+1, 4.940e-6
5.766e+1, 5.016e-6
5.768e+1, 5.023e-6
5.770e+1, 5.023e-6
5.772e+1, 4.996e-6
5.774e+1, 4.948e-6
5.776e+1, 4.921e-6
5.778e+1, 4.925e-6
5.780e+1, 4.914e-6
5.782e+1, 4.854e-6
5.784e+1, 4.794e-6
5.786e+1, 4.821e-6
5.788e+1, 4.832e-6
5.790e+1, 4.838e-6
5.792e+1, 4.863e-6
5.794e+1, 4.877e-6
5.796e+1, 4.871e-6
5.798e+1, 4.835e-6
5.800e+1, 4.807e-6
5.802e+1, 4.794e-6
5.804e+1, 4.787e-6
5.806e+1, 4.773e-6
5.808e+1, 4.724e-6
5.810e+1, 4.675e-6
5.812e+1, 4.662e-6
5.814e+1, 4.660e-6
5.816e+1, 4.652e-6
5.818e+1, 4.642e-6
5.820e+1, 4.633e-6
5.822e+1, 4.623e-6
5.824e+1, 4.628e-6
5.826e+1, 4.588e-6
5.828e+1, 4.560e-6
5.830e+1, 4.563e-6
5.832e+1, 4.602e-6
5.834e+1, 4.720e-6
5.836e+1, 4.770e-6
5.838e+1, 4.737e-6
5.840e+1, 4.762e-6
5.842e+1, 4.822e-6
5.844e+1, 4.843e-6
5.846e+1, 4.842e-6
5.848e+1, 4.789e-6
5.850e+1, 4.770e-6
5.852e+1, 4.802e-6
5.854e+1, 4.762e-6
5.856e+1, 4.702e-6
5.858e+1, 4.708e-6
5.860e+1, 4.727e-6
5.862e+1, 4.737e-6
5.864e+1, 4.779e-6
5.866e+1, 4.790e-6
5.868e+1, 4.792e-6
5.870e+1, 4.783e-6
5.872e+1, 4.726e-6
5.874e+1, 4.713e-6
5.876e+1, 4.717e-6
5.878e+1, 4.716e-6
5.880e+1, 4.706e-6
5.882e+1, 4.679e-6
5.884e+1, 4.659e-6
5.886e+1, 4.657e-6
5.888e+1, 4.652e-6
5.890e+1, 4.657e-6
5.892e+1, 4.655e-6
5.894e+1, 4.655e-6
5.896e+1, 4.653e-6
5.898e+1, 4.631e-6
5.900e+1, 4.587e-6
5.902e+1, 4.559e-6
5.904e+1, 4.551e-6
5.906e+1, 4.554e-6
5.908e+1, 4.731e-6
5.910e+1, 4.827e-6
5.912e+1, 4.877e-6
5.914e+1, 4.980e-6
5.916e+1, 4.996e-6
5.918e+1, 4.995e-6
5.920e+1, 4.987e-6
5.922e+1, 4.968e-6
5.924e+1, 4.963e-6
5.926e+1, 4.962e-6
5.928e+1, 4.933e-6
5.930e+1, 4.845e-6
5.932e+1, 4.739e-6
5.934e+1, 4.817e-6
5.936e+1, 4.837e-6
5.938e+1, 4.850e-6
5.940e+1, 4.852e-6
5.942e+1, 4.865e-6
5.944e+1, 4.868e-6
5.946e+1, 4.871e-6
5.948e+1, 4.865e-6
5.950e+1, 4.861e-6
5.952e+1, 4.856e-6
5.954e+1, 4.801e-6
5.956e+1, 4.786e-6
5.958e+1, 4.764e-6
5.960e+1, 4.733e-6
5.962e+1, 4.728e-6
5.964e+1, 4.733e-6
5.966e+1, 4.735e-6
5.968e+1, 4.696e-6
5.970e+1, 4.689e-6
5.972e+1, 4.680e-6
5.974e+1, 4.705e-6
5.976e+1, 4.709e-6
5.978e+1, 4.643e-6
5.980e+1, 4.638e-6
5.982e+1, 4.681e-6
5.984e+1, 4.800e-6
5.986e+1, 4.968e-6
5.988e+1, 5.161e-6
5.990e+1, 5.199e-6
5.992e+1, 5.209e-6
5.994e+1, 5.257e-6
5.996e+1, 5.274e-6
5.998e+1, 5.227e-6
6.000e+1, 5.217e-6
6.002e+1, 5.187e-6
6.004e+1, 5.160e-6
6.006e+1, 5.082e-6
6.008e+1, 4.934e-6
6.010e+1, 4.912e-6
6.012e+1, 4.966e-6
6.014e+1, 5.023e-6
6.016e+1, 5.033e-6
6.018e+1, 4.991e-6
6.020e+1, 4.978e-6
6.022e+1, 4.986e-6
6.024e+1, 4.989e-6
6.026e+1, 4.983e-6
6.028e+1, 4.922e-6
6.030e+1, 4.880e-6
6.032e+1, 4.853e-6
6.034e+1, 4.805e-6
6.036e+1, 4.800e-6
6.038e+1, 4.785e-6
6.040e+1, 4.773e-6
6.042e+1, 4.765e-6
6.044e+1, 4.746e-6
6.046e+1, 4.739e-6
6.048e+1, 4.680e-6
6.050e+1, 4.664e-6
6.052e+1, 4.659e-6
6.054e+1, 4.639e-6
6.056e+1, 4.614e-6
6.058e+1, 4.604e-6
6.060e+1, 4.543e-6
6.062e+1, 4.554e-6
6.064e+1, 4.606e-6
6.066e+1, 4.829e-6
6.068e+1, 5.029e-6
6.070e+1, 5.204e-6
6.072e+1, 5.222e-6
6.074e+1, 5.212e-6
6.076e+1, 5.201e-6
6.078e+1, 5.126e-6
6.080e+1, 5.031e-6
6.082e+1, 4.972e-6
6.084e+1, 4.933e-6
6.086e+1, 4.939e-6
6.088e+1, 4.922e-6
6.090e+1, 4.835e-6
6.092e+1, 4.835e-6
6.094e+1, 4.862e-6
6.096e+1, 4.870e-6
6.098e+1, 4.862e-6
6.100e+1, 4.840e-6
6.102e+1, 4.853e-6
6.104e+1, 4.870e-6
6.106e+1, 4.871e-6
6.108e+1, 4.861e-6
6.110e+1, 4.886e-6
6.112e+1, 4.884e-6
6.114e+1, 4.883e-6
6.116e+1, 4.868e-6
6.118e+1, 4.817e-6
6.120e+1, 4.709e-6
6.122e+1, 4.711e-6
6.124e+1, 4.716e-6
6.126e+1, 4.722e-6
6.128e+1, 4.691e-6
6.130e+1, 4.661e-6
6.132e+1, 4.601e-6
6.134e+1, 4.560e-6
6.136e+1, 4.568e-6
6.138e+1, 4.553e-6
6.140e+1, 4.616e-6
6.142e+1, 4.831e-6
6.144e+1, 4.976e-6
6.146e+1, 5.066e-6
6.148e+1, 5.060e-6
6.150e+1, 5.053e-6
6.152e+1, 5.014e-6
6.154e+1, 4.957e-6
6.156e+1, 4.928e-6
6.158e+1, 4.924e-6
6.160e+1, 4.892e-6
6.162e+1, 4.773e-6
6.164e+1, 4.697e-6
6.166e+1, 4.709e-6
6.168e+1, 4.737e-6
6.170e+1, 4.772e-6
6.172e+1, 4.816e-6
6.174e+1, 4.835e-6
6.176e+1, 4.823e-6
6.178e+1, 4.750e-6
6.180e+1, 4.727e-6
6.182e+1, 4.733e-6
6.184e+1, 4.732e-6
6.186e+1, 4.721e-6
6.188e+1, 4.703e-6
6.190e+1, 4.642e-6
6.192e+1, 4.550e-6
6.194e+1, 4.507e-6
6.196e+1, 4.498e-6
6.198e+1, 4.535e-6
6.200e+1, 4.559e-6
6.202e+1, 4.564e-6
6.204e+1, 4.565e-6
6.206e+1, 4.563e-6
6.208e+1, 4.566e-6
6.210e+1, 4.553e-6
6.212e+1, 4.556e-6
6.214e+1, 4.571e-6
6.216e+1, 4.730e-6
6.218e+1, 4.916e-6
6.220e+1, 4.988e-6
6.222e+1, 5.057e-6
6.224e+1, 5.071e-6
6.226e+1, 5.080e-6
6.228e+1, 5.066e-6
6.230e+1, 5.052e-6
6.232e+1, 5.045e-6
6.234e+1, 5.028e-6
6.236e+1, 4.986e-6
6.238e+1, 4.917e-6
6.240e+1, 4.868e-6
6.242e+1, 4.873e-6
6.244e+1, 4.881e-6
6.246e+1, 4.881e-6
6.248e+1, 4.864e-6
6.250e+1, 4.880e-6
6.252e+1, 4.884e-6
6.254e+1, 4.852e-6
6.256e+1, 4.813e-6
6.258e+1, 4.780e-6
6.260e+1, 4.754e-6
6.262e+1, 4.757e-6
6.264e+1, 4.762e-6
6.266e+1, 4.757e-6
6.268e+1, 4.743e-6
6.270e+1, 4.671e-6
6.272e+1, 4.622e-6
6.274e+1, 4.622e-6
6.276e+1, 4.606e-6
6.278e+1, 4.606e-6
6.280e+1, 4.605e-6
6.282e+1, 4.608e-6
6.284e+1, 4.601e-6
6.286e+1, 4.579e-6
6.288e+1, 4.566e-6
6.290e+1, 4.566e-6
6.292e+1, 4.595e-6
6.294e+1, 4.620e-6
6.296e+1, 4.862e-6
6.298e+1, 5.061e-6
6.300e+1, 5.137e-6
6.302e+1, 5.214e-6
6.304e+1, 5.305e-6
6.306e+1, 5.287e-6
6.308e+1, 5.281e-6
6.310e+1, 5.297e-6
6.312e+1, 5.288e-6
6.314e+1, 5.245e-6
6.316e+1, 5.240e-6
6.318e+1, 5.227e-6
6.320e+1, 5.181e-6
6.322e+1, 5.203e-6
6.324e+1, 5.238e-6
6.326e+1, 5.256e-6
6.328e+1, 5.260e-6
6.330e+1, 5.228e-6
6.332e+1, 5.233e-6
6.334e+1, 5.185e-6
6.336e+1, 5.076e-6
6.338e+1, 5.001e-6
6.340e+1, 4.957e-6
6.342e+1, 4.921e-6
6.344e+1, 4.846e-6
6.346e+1, 4.826e-6
6.348e+1, 4.803e-6
6.350e+1, 4.807e-6
6.352e+1, 4.908e-6
6.354e+1, 4.937e-6
6.356e+1, 4.942e-6
6.358e+1, 4.924e-6
6.360e+1, 4.938e-6
6.362e+1, 4.939e-6
6.364e+1, 4.937e-6
6.366e+1, 4.942e-6
6.368e+1, 4.930e-6
6.370e+1, 4.896e-6
6.372e+1, 4.905e-6
6.374e+1, 4.904e-6
6.376e+1, 4.983e-6
6.378e+1, 5.181e-6
6.380e+1, 5.246e-6
6.382e+1, 5.284e-6
6.384e+1, 5.283e-6
6.386e+1, 5.283e-6
6.388e+1, 5.258e-6
6.390e+1, 5.222e-6
6.392e+1, 5.198e-6
6.394e+1, 5.179e-6
6.396e+1, 5.183e-6
6.398e+1, 5.152e-6
6.400e+1, 5.086e-6
6.402e+1, 5.078e-6
6.404e+1, 5.079e-6
6.406e+1, 5.104e-6
6.408e+1, 5.126e-6
6.410e+1, 5.114e-6
6.412e+1, 5.141e-6
6.414e+1, 5.119e-6
6.416e+1, 5.075e-6
6.418e+1, 5.041e-6
6.420e+1, 5.053e-6
6.422e+1, 5.008e-6
6.424e+1, 4.957e-6
6.426e+1, 4.954e-6
6.428e+1, 4.958e-6
6.430e+1, 4.950e-6
6.432e+1, 4.870e-6
6.434e+1, 4.818e-6
6.436e+1, 4.822e-6
6.438e+1, 4.777e-6
6.440e+1, 4.727e-6
6.442e+1, 4.713e-6
6.444e+1, 4.705e-6
6.446e+1, 4.709e-6
6.448e+1, 4.702e-6
6.450e+1, 4.882e-6
6.452e+1, 4.990e-6
6.454e+1, 5.076e-6
6.456e+1, 5.104e-6
6.458e+1, 5.101e-6
6.460e+1, 5.084e-6
6.462e+1, 5.085e-6
6.464e+1, 5.062e-6
6.466e+1, 5.070e-6
6.468e+1, 5.078e-6
6.470e+1, 5.089e-6
6.472e+1, 5.000e-6
6.474e+1, 4.935e-6
6.476e+1, 4.962e-6
6.478e+1, 4.976e-6
6.480e+1, 5.003e-6
6.482e+1, 4.999e-6
6.484e+1, 5.040e-6
6.486e+1, 5.026e-6
6.488e+1, 4.993e-6
6.490e+1, 4.990e-6
6.492e+1, 4.943e-6
6.494e+1, 4.874e-6
6.496e+1, 4.866e-6
6.498e+1, 4.808e-6
6.500e+1, 4.805e-6
6.502e+1, 4.780e-6
6.504e+1, 4.764e-6
6.506e+1, 4.753e-6
6.508e+1, 4.742e-6
6.510e+1, 4.741e-6
6.512e+1, 4.737e-6
6.514e+1, 4.731e-6
6.516e+1, 4.732e-6
6.518e+1, 4.699e-6
6.520e+1, 4.685e-6
6.522e+1, 4.708e-6
6.524e+1, 4.882e-6
6.526e+1, 5.047e-6
6.528e+1, 5.180e-6
6.530e+1, 5.220e-6
6.532e+1, 5.229e-6
6.534e+1, 5.222e-6
6.536e+1, 5.208e-6
6.538e+1, 5.190e-6
6.540e+1, 5.172e-6
6.542e+1, 5.163e-6
6.544e+1, 5.173e-6
6.546e+1, 5.174e-6
6.548e+1, 5.123e-6
6.550e+1, 5.131e-6
6.552e+1, 5.198e-6
6.554e+1, 5.212e-6
6.556e+1, 5.169e-6
6.558e+1, 5.088e-6
6.560e+1, 5.089e-6
6.562e+1, 5.088e-6
6.564e+1, 5.079e-6
6.566e+1, 5.053e-6
6.568e+1, 5.066e-6
6.570e+1, 5.099e-6
6.572e+1, 5.099e-6
6.574e+1, 5.073e-6
6.576e+1, 5.000e-6
6.578e+1, 4.982e-6
6.580e+1, 4.985e-6
6.582e+1, 4.956e-6
6.584e+1, 4.893e-6
6.586e+1, 4.839e-6
6.588e+1, 4.796e-6
6.590e+1, 4.781e-6
6.592e+1, 4.753e-6
6.594e+1, 4.751e-6
6.596e+1, 4.757e-6
6.598e+1, 4.888e-6
6.600e+1, 5.214e-6
6.602e+1, 5.406e-6
6.604e+1, 5.429e-6
6.606e+1, 5.414e-6
6.608e+1, 5.415e-6
6.610e+1, 5.394e-6
6.612e+1, 5.387e-6
6.614e+1, 5.386e-6
6.616e+1, 5.390e-6
6.618e+1, 5.394e-6
6.620e+1, 5.398e-6
6.622e+1, 5.394e-6
6.624e+1, 5.437e-6
6.626e+1, 5.460e-6
6.628e+1, 5.480e-6
6.630e+1, 5.499e-6
6.632e+1, 5.501e-6
6.634e+1, 5.471e-6
6.636e+1, 5.452e-6
6.638e+1, 5.403e-6
6.640e+1, 5.405e-6
6.642e+1, 5.391e-6
6.644e+1, 5.354e-6
6.646e+1, 5.310e-6
6.648e+1, 5.288e-6
6.650e+1, 5.298e-6
6.652e+1, 5.300e-6
6.654e+1, 5.241e-6
6.656e+1, 5.233e-6
6.658e+1, 5.204e-6
6.660e+1, 5.177e-6
6.662e+1, 5.189e-6
6.664e+1, 5.198e-6
6.666e+1, 5.192e-6
6.668e+1, 5.153e-6
6.670e+1, 5.095e-6
6.672e+1, 5.130e-6
6.674e+1, 5.167e-6
6.676e+1, 5.296e-6
6.678e+1, 5.497e-6
6.680e+1, 5.567e-6
6.682e+1, 5.512e-6
6.684e+1, 5.483e-6
6.686e+1, 5.474e-6
6.688e+1, 5.461e-6
6.690e+1, 5.461e-6
6.692e+1, 5.467e-6
6.694e+1, 5.474e-6
6.696e+1, 5.475e-6
6.698e+1, 5.469e-6
6.700e+1, 5.467e-6
6.702e+1, 5.477e-6
6.704e+1, 5.475e-6
6.706e+1, 5.475e-6
6.708e+1, 5.467e-6
6.710e+1, 5.464e-6
6.712e+1, 5.461e-6
6.714e+1, 5.458e-6
6.716e+1, 5.437e-6
6.718e+1, 5.404e-6
6.720e+1, 5.369e-6
6.722e+1, 5.349e-6
6.724e+1, 5.273e-6
6.726e+1, 5.250e-6
6.728e+1, 5.250e-6
6.730e+1, 5.243e-6
6.732e+1, 5.241e-6
6.734e+1, 5.223e-6
6.736e+1, 5.221e-6
6.738e+1, 5.248e-6
6.740e+1, 5.297e-6
6.742e+1, 5.299e-6
6.744e+1, 5.303e-6
6.746e+1, 5.297e-6
6.748e+1, 5.257e-6
6.750e+1, 5.199e-6
6.752e+1, 5.195e-6
6.754e+1, 5.164e-6
6.756e+1, 5.203e-6
6.758e+1, 5.355e-6
6.760e+1, 5.422e-6
6.762e+1, 5.509e-6
6.764e+1, 5.477e-6
6.766e+1, 5.484e-6
6.768e+1, 5.474e-6
6.770e+1, 5.502e-6
6.772e+1, 5.499e-6
6.774e+1, 5.501e-6
6.776e+1, 5.492e-6
6.778e+1, 5.492e-6
6.780e+1, 5.446e-6
6.782e+1, 5.469e-6
6.784e+1, 5.507e-6
6.786e+1, 5.502e-6
6.788e+1, 5.496e-6
6.790e+1, 5.486e-6
6.792e+1, 5.519e-6
6.794e+1, 5.517e-6
6.796e+1, 5.421e-6
6.798e+1, 5.403e-6
6.800e+1, 5.435e-6
6.802e+1, 5.446e-6
6.804e+1, 5.436e-6
6.806e+1, 5.407e-6
6.808e+1, 5.384e-6
6.810e+1, 5.364e-6
6.812e+1, 5.361e-6
6.814e+1, 5.364e-6
6.816e+1, 5.362e-6
6.818e+1, 5.359e-6
6.820e+1, 5.342e-6
6.822e+1, 5.319e-6
6.824e+1, 5.258e-6
6.826e+1, 5.229e-6
6.828e+1, 5.214e-6
6.830e+1, 5.214e-6
6.832e+1, 5.287e-6
6.834e+1, 5.434e-6
6.836e+1, 5.512e-6
6.838e+1, 5.544e-6
6.840e+1, 5.583e-6
6.842e+1, 5.602e-6
6.844e+1, 5.581e-6
6.846e+1, 5.613e-6
6.848e+1, 5.625e-6
6.850e+1, 5.611e-6
6.852e+1, 5.580e-6
6.854e+1, 5.519e-6
6.856e+1, 5.485e-6
6.858e+1, 5.478e-6
6.860e+1, 5.463e-6
6.862e+1, 5.474e-6
6.864e+1, 5.503e-6
6.866e+1, 5.491e-6
6.868e+1, 5.464e-6
6.870e+1, 5.451e-6
6.872e+1, 5.454e-6
6.874e+1, 5.466e-6
6.876e+1, 5.477e-6
6.878e+1, 5.450e-6
6.880e+1, 5.423e-6
6.882e+1, 5.419e-6
6.884e+1, 5.406e-6
6.886e+1, 5.374e-6
6.888e+1, 5.347e-6
6.890e+1, 5.329e-6
6.892e+1, 5.318e-6
6.894e+1, 5.318e-6
6.896e+1, 5.308e-6
6.898e+1, 5.294e-6
6.900e+1, 5.256e-6
6.902e+1, 5.293e-6
6.904e+1, 5.318e-6
6.906e+1, 5.404e-6
6.908e+1, 5.572e-6
6.910e+1, 5.657e-6
6.912e+1, 5.715e-6
6.914e+1, 5.713e-6
6.916e+1, 5.708e-6
6.918e+1, 5.679e-6
6.920e+1, 5.624e-6
6.922e+1, 5.599e-6
6.924e+1, 5.588e-6
6.926e+1, 5.588e-6
6.928e+1, 5.581e-6
6.930e+1, 5.554e-6
6.932e+1, 5.570e-6
6.934e+1, 5.588e-6
6.936e+1, 5.594e-6
6.938e+1, 5.602e-6
6.940e+1, 5.646e-6
6.942e+1, 5.656e-6
6.944e+1, 5.527e-6
6.946e+1, 5.459e-6
6.948e+1, 5.426e-6
6.950e+1, 5.427e-6
6.952e+1, 5.402e-6
6.954e+1, 5.336e-6
6.956e+1, 5.325e-6
6.958e+1, 5.322e-6
6.960e+1, 5.318e-6
6.962e+1, 5.319e-6
6.964e+1, 5.312e-6
6.966e+1, 5.305e-6
6.968e+1, 5.305e-6
6.970e+1, 5.292e-6
6.972e+1, 5.275e-6
6.974e+1, 5.275e-6
6.976e+1, 5.208e-6
6.978e+1, 5.067e-6
6.980e+1, 5.037e-6
6.982e+1, 5.095e-6
6.984e+1, 5.223e-6
6.986e+1, 5.427e-6
6.988e+1, 5.469e-6
6.990e+1, 5.487e-6
6.992e+1, 5.511e-6
6.994e+1, 5.518e-6
6.996e+1, 5.513e-6
6.998e+1, 5.515e-6
7.000e+1, 5.503e-6
7.002e+1, 5.511e-6
7.004e+1, 5.515e-6
7.006e+1, 5.531e-6
7.008e+1, 5.529e-6
7.010e+1, 5.541e-6
7.012e+1, 5.561e-6
7.014e+1, 5.558e-6
7.016e+1, 5.526e-6
7.018e+1, 5.469e-6
7.020e+1, 5.464e-6
7.022e+1, 5.373e-6
7.024e+1, 5.348e-6
7.026e+1, 5.302e-6
7.028e+1, 5.284e-6
7.030e+1, 5.275e-6
7.032e+1, 5.270e-6
7.034e+1, 5.267e-6
7.036e+1, 5.245e-6
7.038e+1, 5.219e-6
7.040e+1, 5.168e-6
7.042e+1, 5.151e-6
7.044e+1, 5.141e-6
7.046e+1, 5.088e-6
7.048e+1, 4.988e-6
7.050e+1, 4.974e-6
7.052e+1, 4.967e-6
7.054e+1, 4.955e-6
7.056e+1, 4.930e-6
7.058e+1, 4.906e-6
7.060e+1, 4.896e-6
7.062e+1, 4.900e-6
7.064e+1, 4.977e-6
7.066e+1, 5.181e-6
7.068e+1, 5.307e-6
7.070e+1, 5.359e-6
7.072e+1, 5.371e-6
7.074e+1, 5.384e-6
7.076e+1, 5.358e-6
7.078e+1, 5.353e-6
7.080e+1, 5.345e-6
7.082e+1, 5.339e-6
7.084e+1, 5.307e-6
7.086e+1, 5.320e-6
7.088e+1, 5.315e-6
7.090e+1, 5.242e-6
7.092e+1, 5.226e-6
7.094e+1, 5.275e-6
7.096e+1, 5.272e-6
7.098e+1, 5.244e-6
7.100e+1, 5.250e-6
7.102e+1, 5.265e-6
7.104e+1, 5.215e-6
7.106e+1, 5.165e-6
7.108e+1, 5.141e-6
7.110e+1, 5.061e-6
7.112e+1, 5.070e-6
7.114e+1, 5.092e-6
7.116e+1, 5.093e-6
7.118e+1, 5.092e-6
7.120e+1, 5.075e-6
7.122e+1, 5.070e-6
7.124e+1, 5.078e-6
7.126e+1, 5.078e-6
7.128e+1, 5.064e-6
7.130e+1, 5.005e-6
7.132e+1, 4.960e-6
7.134e+1, 4.852e-6
7.136e+1, 4.753e-6
7.138e+1, 4.771e-6
7.140e+1, 4.842e-6
7.142e+1, 4.876e-6
7.144e+1, 4.945e-6
7.146e+1, 5.077e-6
7.148e+1, 5.087e-6
7.150e+1, 5.144e-6
7.152e+1, 5.165e-6
7.154e+1, 5.169e-6
7.156e+1, 5.170e-6
7.158e+1, 5.129e-6
7.160e+1, 5.093e-6
7.162e+1, 5.073e-6
7.164e+1, 5.071e-6
7.166e+1, 5.011e-6
7.168e+1, 4.981e-6
7.170e+1, 5.012e-6
7.172e+1, 5.046e-6
7.174e+1, 5.055e-6
7.176e+1, 5.074e-6
7.178e+1, 5.084e-6
7.180e+1, 5.120e-6
7.182e+1, 5.087e-6
7.184e+1, 5.061e-6
7.186e+1, 5.088e-6
7.188e+1, 5.093e-6
7.190e+1, 5.111e-6
7.192e+1, 5.115e-6
7.194e+1, 5.110e-6
7.196e+1, 5.114e-6
7.198e+1, 5.116e-6
7.200e+1, 5.105e-6
7.202e+1, 5.110e-6
7.204e+1, 5.103e-6
7.206e+1, 5.088e-6
7.208e+1, 5.025e-6
7.210e+1, 4.994e-6
7.212e+1, 4.954e-6
7.214e+1, 4.923e-6
7.216e+1, 4.922e-6
7.218e+1, 4.977e-6
7.220e+1, 4.985e-6
7.222e+1, 5.111e-6
7.224e+1, 5.297e-6
7.226e+1, 5.378e-6
7.228e+1, 5.353e-6
7.230e+1, 5.377e-6
7.232e+1, 5.387e-6
7.234e+1, 5.397e-6
7.236e+1, 5.408e-6
7.238e+1, 5.410e-6
7.240e+1, 5.406e-6
7.242e+1, 5.406e-6
7.244e+1, 5.374e-6
7.246e+1, 5.242e-6
7.248e+1, 5.266e-6
7.250e+1, 5.272e-6
7.252e+1, 5.219e-6
7.254e+1, 5.221e-6
7.256e+1, 5.227e-6
7.258e+1, 5.195e-6
7.260e+1, 5.163e-6
7.262e+1, 5.156e-6
7.264e+1, 5.162e-6
7.266e+1, 5.166e-6
7.268e+1, 5.166e-6
7.270e+1, 5.157e-6
7.272e+1, 5.163e-6
7.274e+1, 5.204e-6
7.276e+1, 5.217e-6
7.278e+1, 5.210e-6
7.280e+1, 5.210e-6
7.282e+1, 5.206e-6
7.284e+1, 5.201e-6
7.286e+1, 5.177e-6
7.288e+1, 5.199e-6
7.290e+1, 5.201e-6
7.292e+1, 5.198e-6
7.294e+1, 5.190e-6
7.296e+1, 5.112e-6
7.298e+1, 5.026e-6
7.300e+1, 5.037e-6
7.302e+1, 5.091e-6
7.304e+1, 5.259e-6
7.306e+1, 5.387e-6
7.308e+1, 5.415e-6
7.310e+1, 5.437e-6
7.312e+1, 5.455e-6
7.314e+1, 5.455e-6
7.316e+1, 5.447e-6
7.318e+1, 5.411e-6
7.320e+1, 5.411e-6
7.322e+1, 5.409e-6
7.324e+1, 5.417e-6
7.326e+1, 5.423e-6
7.328e+1, 5.401e-6
7.330e+1, 5.390e-6
7.332e+1, 5.411e-6
7.334e+1, 5.410e-6
7.336e+1, 5.384e-6
7.338e+1, 5.399e-6
7.340e+1, 5.394e-6
7.342e+1, 5.304e-6
7.344e+1, 5.270e-6
7.346e+1, 5.266e-6
7.348e+1, 5.277e-6
7.350e+1, 5.259e-6
7.352e+1, 5.263e-6
7.354e+1, 5.269e-6
7.356e+1, 5.260e-6
7.358e+1, 5.263e-6
7.360e+1, 5.263e-6
7.362e+1, 5.245e-6
7.364e+1, 5.172e-6
7.366e+1, 5.104e-6
7.368e+1, 5.092e-6
7.370e+1, 5.052e-6
7.372e+1, 4.986e-6
7.374e+1, 4.958e-6
7.376e+1, 4.915e-6
7.378e+1, 4.878e-6
7.380e+1, 4.854e-6
7.382e+1, 4.856e-6
7.384e+1, 4.844e-6
7.386e+1, 4.887e-6
7.388e+1, 5.114e-6
7.390e+1, 5.265e-6
7.392e+1, 5.369e-6
7.394e+1, 5.386e-6
7.396e+1, 5.358e-6
7.398e+1, 5.376e-6
7.400e+1, 5.383e-6
7.402e+1, 5.378e-6
7.404e+1, 5.376e-6
7.406e+1, 5.394e-6
7.408e+1, 5.379e-6
7.410e+1, 5.345e-6
7.412e+1, 5.243e-6
7.414e+1, 5.263e-6
7.416e+1, 5.260e-6
7.418e+1, 5.232e-6
7.420e+1, 5.212e-6
7.422e+1, 5.201e-6
7.424e+1, 5.160e-6
7.426e+1, 5.108e-6
7.428e+1, 5.113e-6
7.430e+1, 5.104e-6
7.432e+1, 5.078e-6
7.434e+1, 5.060e-6
7.436e+1, 5.016e-6
7.438e+1, 4.946e-6
7.440e+1, 4.859e-6
7.442e+1, 4.835e-6
7.444e+1, 4.818e-6
7.446e+1, 4.807e-6
7.448e+1, 4.788e-6
7.450e+1, 4.767e-6
7.452e+1, 4.741e-6
7.454e+1, 4.725e-6
7.456e+1, 4.670e-6
7.458e+1, 4.615e-6
7.460e+1, 4.513e-6
7.462e+1, 4.496e-6
7.464e+1, 4.497e-6
7.466e+1, 4.688e-6
7.468e+1, 4.910e-6
7.470e+1, 5.000e-6
7.472e+1, 5.000e-6
7.474e+1, 4.989e-6
7.476e+1, 4.983e-6
7.478e+1, 4.954e-6
7.480e+1, 4.927e-6
7.482e+1, 4.887e-6
7.484e+1, 4.861e-6
7.486e+1, 4.852e-6
7.488e+1, 4.739e-6
7.490e+1, 4.708e-6
7.492e+1, 4.740e-6
7.494e+1, 4.758e-6
7.496e+1, 4.787e-6
7.498e+1, 4.813e-6
7.500e+1, 4.833e-6
7.502e+1, 4.772e-6
7.504e+1, 4.704e-6
7.506e+1, 4.721e-6
7.508e+1, 4.717e-6
7.510e+1, 4.711e-6
7.512e+1, 4.673e-6
7.514e+1, 4.586e-6
7.516e+1, 4.549e-6
7.518e+1, 4.540e-6
7.520e+1, 4.541e-6
7.522e+1, 4.553e-6
7.524e+1, 4.554e-6
7.526e+1, 4.558e-6
7.528e+1, 4.553e-6
7.530e+1, 4.538e-6
7.532e+1, 4.515e-6
7.534e+1, 4.521e-6
7.536e+1, 4.518e-6
7.538e+1, 4.564e-6
7.540e+1, 4.761e-6
7.542e+1, 4.836e-6
7.544e+1, 4.910e-6
7.546e+1, 4.926e-6
7.548e+1, 4.938e-6
7.550e+1, 4.926e-6
7.552e+1, 4.908e-6
7.554e+1, 4.903e-6
7.556e+1, 4.911e-6
7.558e+1, 4.930e-6
7.560e+1, 4.903e-6
7.562e+1, 4.816e-6
7.564e+1, 4.813e-6
7.566e+1, 4.819e-6
7.568e+1, 4.830e-6
7.570e+1, 4.827e-6
7.572e+1, 4.880e-6
7.574e+1, 4.820e-6
7.576e+1, 4.784e-6
7.578e+1, 4.760e-6
7.580e+1, 4.748e-6
7.582e+1, 4.758e-6
7.584e+1, 4.762e-6
7.586e+1, 4.745e-6
7.588e+1, 4.727e-6
7.590e+1, 4.737e-6
7.592e+1, 4.743e-6
7.594e+1, 4.733e-6
7.596e+1, 4.686e-6
7.598e+1, 4.681e-6
7.600e+1, 4.691e-6
7.602e+1, 4.695e-6
7.604e+1, 4.670e-6
7.606e+1, 4.628e-6
7.608e+1, 4.579e-6
7.610e+1, 4.584e-6
7.612e+1, 4.611e-6
7.614e+1, 4.755e-6
7.616e+1, 4.938e-6
7.618e+1, 4.980e-6
7.620e+1, 5.013e-6
7.622e+1, 5.026e-6
7.624e+1, 5.035e-6
7.626e+1, 5.010e-6
7.628e+1, 4.984e-6
7.630e+1, 4.994e-6
7.632e+1, 5.007e-6
7.634e+1, 5.004e-6
7.636e+1, 4.948e-6
7.638e+1, 4.903e-6
7.640e+1, 4.919e-6
7.642e+1, 4.926e-6
7.644e+1, 4.920e-6
7.646e+1, 4.929e-6
7.648e+1, 4.958e-6
7.650e+1, 4.950e-6
7.652e+1, 4.878e-6
7.654e+1, 4.831e-6
7.656e+1, 4.789e-6
7.658e+1, 4.783e-6
7.660e+1, 4.784e-6
7.662e+1, 4.762e-6
7.664e+1, 4.751e-6
7.666e+1, 4.743e-6
7.668e+1, 4.722e-6
7.670e+1, 4.705e-6
7.672e+1, 4.683e-6
7.674e+1, 4.664e-6
7.676e+1, 4.649e-6
7.678e+1, 4.628e-6
7.680e+1, 4.625e-6
7.682e+1, 4.606e-6
7.684e+1, 4.549e-6
7.686e+1, 4.477e-6
7.688e+1, 4.445e-6
7.690e+1, 4.482e-6
7.692e+1, 4.695e-6
7.694e+1, 4.832e-6
7.696e+1, 4.831e-6
7.698e+1, 4.858e-6
7.700e+1, 4.873e-6
7.702e+1, 4.852e-6
7.704e+1, 4.791e-6
7.706e+1, 4.775e-6
7.708e+1, 4.778e-6
7.710e+1, 4.841e-6
7.712e+1, 4.878e-6
7.714e+1, 4.852e-6
7.716e+1, 4.829e-6
7.718e+1, 4.862e-6
7.720e+1, 4.868e-6
7.722e+1, 4.872e-6
7.724e+1, 4.882e-6
7.726e+1, 4.909e-6
7.728e+1, 4.897e-6
7.730e+1, 4.866e-6
7.732e+1, 4.864e-6
7.734e+1, 4.852e-6
7.736e+1, 4.850e-6
7.738e+1, 4.832e-6
7.740e+1, 4.849e-6
7.742e+1, 4.928e-6
7.744e+1, 4.932e-6
7.746e+1, 4.909e-6
7.748e+1, 4.906e-6
7.750e+1, 4.929e-6
7.752e+1, 4.953e-6
7.754e+1, 4.970e-6
7.756e+1, 4.917e-6
7.758e+1, 4.906e-6
7.760e+1, 4.904e-6
7.762e+1, 4.933e-6
7.764e+1, 4.933e-6
7.766e+1, 5.043e-6
7.768e+1, 5.248e-6
7.770e+1, 5.304e-6
7.772e+1, 5.319e-6
7.774e+1, 5.338e-6
7.776e+1, 5.347e-6
7.778e+1, 5.314e-6
7.780e+1, 5.286e-6
7.782e+1, 5.271e-6
7.784e+1, 5.292e-6
7.786e+1, 5.303e-6
7.788e+1, 5.222e-6
7.790e+1, 5.183e-6
7.792e+1, 5.215e-6
7.794e+1, 5.235e-6
7.796e+1, 5.242e-6
7.798e+1, 5.259e-6
7.800e+1, 5.305e-6
7.802e+1, 5.284e-6
7.804e+1, 5.273e-6
7.806e+1, 5.274e-6
7.808e+1, 5.261e-6
7.810e+1, 5.244e-6
7.812e+1, 5.245e-6
7.814e+1, 5.257e-6
7.816e+1, 5.261e-6
7.818e+1, 5.255e-6
7.820e+1, 5.247e-6
7.822e+1, 5.256e-6
7.824e+1, 5.284e-6
7.826e+1, 5.255e-6
7.828e+1, 5.248e-6
7.830e+1, 5.209e-6
7.832e+1, 5.175e-6
7.834e+1, 5.110e-6
7.836e+1, 5.123e-6
7.838e+1, 5.185e-6
7.840e+1, 5.313e-6
7.842e+1, 5.386e-6
7.844e+1, 5.438e-6
7.846e+1, 5.443e-6
7.848e+1, 5.429e-6
7.850e+1, 5.399e-6
7.852e+1, 5.413e-6
7.854e+1, 5.432e-6
7.856e+1, 5.456e-6
7.858e+1, 5.456e-6
7.860e+1, 5.456e-6
7.862e+1, 5.441e-6
7.864e+1, 5.440e-6
7.866e+1, 5.450e-6
7.868e+1, 5.451e-6
7.870e+1, 5.447e-6
7.872e+1, 5.447e-6
7.874e+1, 5.420e-6
7.876e+1, 5.390e-6
7.878e+1, 5.367e-6
7.880e+1, 5.335e-6
7.882e+1, 5.339e-6
7.884e+1, 5.329e-6
7.886e+1, 5.309e-6
7.888e+1, 5.272e-6
7.890e+1, 5.189e-6
7.892e+1, 5.132e-6
7.894e+1, 5.127e-6
7.896e+1, 5.110e-6
7.898e+1, 5.018e-6
7.900e+1, 4.845e-6
7.902e+1, 4.800e-6
7.904e+1, 4.809e-6
7.906e+1, 4.846e-6
7.908e+1, 4.856e-6
7.910e+1, 4.768e-6
7.912e+1, 4.684e-6
7.914e+1, 4.676e-6
7.916e+1, 4.917e-6
7.918e+1, 5.095e-6
7.920e+1, 5.151e-6
7.922e+1, 5.170e-6
7.924e+1, 5.215e-6
7.926e+1, 5.230e-6
7.928e+1, 5.218e-6
7.930e+1, 5.108e-6
7.932e+1, 5.100e-6
7.934e+1, 5.070e-6
7.936e+1, 5.004e-6
7.938e+1, 4.762e-6
7.940e+1, 4.583e-6
7.942e+1, 4.520e-6
7.944e+1, 4.476e-6
7.946e+1, 4.445e-6
7.948e+1, 4.433e-6
7.950e+1, 4.344e-6
7.952e+1, 4.248e-6
7.954e+1, 4.173e-6
7.956e+1, 4.119e-6
7.958e+1, 4.123e-6
7.960e+1, 4.101e-6
7.962e+1, 3.894e-6
7.964e+1, 3.790e-6
7.966e+1, 3.762e-6
7.968e+1, 3.735e-6
7.970e+1, 3.728e-6
7.972e+1, 3.686e-6
7.974e+1, 3.576e-6
7.976e+1, 3.438e-6
7.978e+1, 3.430e-6
7.980e+1, 3.383e-6
7.982e+1, 3.233e-6
7.984e+1, 3.058e-6
7.986e+1, 2.803e-6
7.988e+1, 2.480e-6
7.990e+1, 2.449e-6
7.992e+1, 2.407e-6
7.994e+1, 2.413e-6
7.996e+1, 2.409e-6
7.998e+1, 2.390e-6
8.000e+1, 2.357e-6
8.002e+1, 2.320e-6
8.004e+1, 2.192e-6
8.006e+1, 1.988e-6
8.008e+1, 1.758e-6
8.010e+1, 1.649e-6
8.012e+1, 1.641e-6
8.014e+1, 1.683e-6
8.016e+1, 1.524e-6
8.018e+1, 1.061e-6
8.020e+1, 5.519e-7
8.022e+1, 3.847e-7
8.024e+1, 2.019e-7
8.026e+1, 1.756e-7
8.028e+1, 1.555e-7
8.030e+1, 1.620e-7
8.032e+1, 1.577e-7
8.034e+1, 1.464e-7
8.036e+1, 1.230e-7
8.038e+1, 8.636e-8
8.040e+1, 9.390e-8
8.042e+1, 1.491e-7
8.044e+1, 2.984e-7
8.046e+1, 2.952e-7
8.048e+1, 3.049e-7
8.050e+1, 3.416e-7
8.052e+1, 4.055e-7
8.054e+1, 4.237e-7
8.056e+1, 4.331e-7
8.058e+1, 4.344e-7
8.060e+1, 4.441e-7
8.062e+1, 4.620e-7
8.064e+1, 5.259e-7
8.066e+1, 6.942e-7
8.068e+1, 7.910e-7
8.070e+1, 9.289e-7
8.072e+1, 9.820e-7
8.074e+1, 9.695e-7
8.076e+1, 9.669e-7
8.078e+1, 9.978e-7
8.080e+1, 9.594e-7
8.082e+1, 8.274e-7
8.084e+1, 6.260e-7
8.086e+1, 5.938e-7
8.088e+1, 5.439e-7
8.090e+1, 5.618e-7
8.092e+1, 6.001e-7
8.094e+1, 5.936e-7
8.096e+1, 5.864e-7
8.098e+1, 5.901e-7
8.100e+1, 5.965e-7
8.102e+1, 6.298e-7
8.104e+1, 7.244e-7
8.106e+1, 7.133e-7
8.108e+1, 7.167e-7
8.110e+1, 7.628e-7
8.112e+1, 7.783e-7
8.114e+1, 6.826e-7
8.116e+1, 6.281e-7
8.118e+1, 6.261e-7
8.120e+1, 6.370e-7
8.122e+1, 6.335e-7
8.124e+1, 6.017e-7
8.126e+1, 5.758e-7
8.128e+1, 5.640e-7
8.130e+1, 5.451e-7
8.132e+1, 5.165e-7
8.134e+1, 5.386e-7
8.136e+1, 6.122e-7
8.138e+1, 7.862e-7
8.140e+1, 7.554e-7
8.142e+1, 7.635e-7
8.144e+1, 7.913e-7
8.146e+1, 7.992e-7
8.148e+1, 8.490e-7
8.150e+1, 8.650e-7
8.152e+1, 8.705e-7
