July 5, 2024   17:43:49
Amperometric i-t Curve
File: run unsaved
Data Source:  Experiment
Instrument Model:  CHI760E
Header: 
Note: 

Init E (V) = 0.1
Sample Interval (s) = 0.03
Run Time (sec) = 4e+3
Quiet Time (sec) = 0
Sensitivity (A/V) = 1e-5

Results:

Channel 1:

Time/sec, Current/A

3.000e-2, 4.430e-6
6.000e-2, 4.439e-6
9.000e-2, 4.438e-6
1.200e-1, 4.428e-6
1.500e-1, 4.433e-6
1.800e-1, 4.436e-6
2.100e-1, 4.469e-6
2.400e-1, 4.539e-6
2.700e-1, 4.559e-6
3.000e-1, 4.524e-6
3.300e-1, 4.575e-6
3.600e-1, 4.635e-6
3.900e-1, 4.616e-6
4.200e-1, 4.635e-6
4.500e-1, 4.634e-6
4.800e-1, 4.625e-6
5.100e-1, 4.621e-6
5.400e-1, 4.591e-6
5.700e-1, 4.597e-6
6.000e-1, 4.595e-6
6.300e-1, 4.583e-6
6.600e-1, 4.603e-6
6.900e-1, 4.562e-6
7.200e-1, 4.564e-6
7.500e-1, 4.590e-6
7.800e-1, 4.602e-6
8.100e-1, 4.577e-6
8.400e-1, 4.582e-6
8.700e-1, 4.631e-6
9.000e-1, 4.628e-6
9.300e-1, 4.616e-6
9.600e-1, 4.613e-6
9.900e-1, 4.577e-6
1.020e+0, 4.579e-6
1.050e+0, 4.516e-6
1.080e+0, 4.506e-6
1.110e+0, 4.592e-6
1.140e+0, 4.610e-6
1.170e+0, 4.670e-6
1.200e+0, 4.693e-6
1.230e+0, 4.659e-6
1.260e+0, 4.649e-6
1.290e+0, 4.651e-6
1.320e+0, 4.648e-6
1.350e+0, 4.632e-6
1.380e+0, 4.586e-6
1.410e+0, 4.597e-6
1.440e+0, 4.672e-6
1.470e+0, 4.695e-6
1.500e+0, 4.654e-6
1.530e+0, 4.632e-6
1.560e+0, 4.711e-6
1.590e+0, 4.737e-6
1.620e+0, 4.614e-6
1.650e+0, 4.650e-6
1.680e+0, 4.446e-6
1.710e+0, 4.443e-6
1.740e+0, 4.395e-6
1.770e+0, 4.190e-6
1.800e+0, 4.060e-6
1.830e+0, 4.011e-6
1.860e+0, 3.998e-6
1.890e+0, 3.795e-6
1.920e+0, 3.680e-6
1.950e+0, 3.799e-6
1.980e+0, 3.916e-6
2.010e+0, 3.952e-6
2.040e+0, 3.865e-6
2.070e+0, 3.692e-6
2.100e+0, 3.759e-6
2.130e+0, 3.811e-6
2.160e+0, 3.748e-6
2.190e+0, 3.568e-6
2.220e+0, 3.742e-6
2.250e+0, 3.771e-6
2.280e+0, 3.902e-6
2.310e+0, 3.986e-6
2.340e+0, 3.997e-6
2.370e+0, 4.043e-6
2.400e+0, 4.029e-6
2.430e+0, 4.123e-6
2.460e+0, 4.083e-6
2.490e+0, 4.141e-6
2.520e+0, 3.993e-6
2.550e+0, 3.920e-6
2.580e+0, 3.967e-6
2.610e+0, 3.944e-6
2.640e+0, 3.985e-6
2.670e+0, 3.963e-6
2.700e+0, 3.939e-6
2.730e+0, 3.907e-6
2.760e+0, 3.808e-6
2.790e+0, 3.818e-6
2.820e+0, 3.919e-6
2.850e+0, 3.971e-6
2.880e+0, 3.953e-6
2.910e+0, 3.899e-6
2.940e+0, 3.852e-6
2.970e+0, 3.750e-6
3.000e+0, 3.672e-6
3.030e+0, 3.579e-6
3.060e+0, 3.565e-6
3.090e+0, 3.603e-6
3.120e+0, 3.634e-6
3.150e+0, 3.625e-6
3.180e+0, 3.619e-6
3.210e+0, 3.667e-6
3.240e+0, 3.709e-6
3.270e+0, 3.733e-6
3.300e+0, 3.720e-6
3.330e+0, 3.699e-6
3.360e+0, 3.744e-6
3.390e+0, 3.773e-6
3.420e+0, 3.772e-6
3.450e+0, 3.785e-6
3.480e+0, 3.877e-6
3.510e+0, 3.854e-6
3.540e+0, 3.842e-6
3.570e+0, 3.819e-6
3.600e+0, 3.952e-6
3.630e+0, 3.975e-6
3.660e+0, 3.961e-6
3.690e+0, 4.000e-6
3.720e+0, 4.022e-6
3.750e+0, 4.105e-6
3.780e+0, 4.190e-6
3.810e+0, 4.220e-6
3.840e+0, 4.217e-6
3.870e+0, 4.231e-6
3.900e+0, 4.206e-6
3.930e+0, 4.209e-6
3.960e+0, 4.262e-6
3.990e+0, 4.263e-6
4.020e+0, 4.259e-6
4.050e+0, 4.253e-6
4.080e+0, 4.248e-6
4.110e+0, 4.244e-6
4.140e+0, 4.251e-6
4.170e+0, 4.241e-6
4.200e+0, 4.051e-6
4.230e+0, 4.056e-6
4.260e+0, 4.035e-6
4.290e+0, 4.032e-6
4.320e+0, 4.020e-6
4.350e+0, 4.038e-6
4.380e+0, 4.174e-6
4.410e+0, 4.198e-6
4.440e+0, 4.192e-6
4.470e+0, 4.208e-6
4.500e+0, 4.214e-6
4.530e+0, 4.219e-6
4.560e+0, 4.240e-6
4.590e+0, 4.260e-6
4.620e+0, 4.284e-6
4.650e+0, 4.342e-6
4.680e+0, 4.327e-6
4.710e+0, 4.322e-6
4.740e+0, 4.320e-6
4.770e+0, 4.331e-6
4.800e+0, 4.362e-6
4.830e+0, 4.356e-6
4.860e+0, 4.350e-6
4.890e+0, 4.382e-6
4.920e+0, 4.369e-6
4.950e+0, 4.384e-6
4.980e+0, 4.366e-6
5.010e+0, 4.337e-6
5.040e+0, 4.337e-6
5.070e+0, 4.334e-6
5.100e+0, 4.336e-6
5.130e+0, 4.338e-6
5.160e+0, 4.330e-6
5.190e+0, 4.316e-6
5.220e+0, 4.325e-6
5.250e+0, 4.352e-6
5.280e+0, 4.373e-6
5.310e+0, 4.375e-6
5.340e+0, 4.380e-6
5.370e+0, 4.387e-6
5.400e+0, 4.312e-6
5.430e+0, 4.334e-6
5.460e+0, 4.362e-6
5.490e+0, 4.363e-6
5.520e+0, 4.361e-6
5.550e+0, 4.398e-6
5.580e+0, 4.479e-6
5.610e+0, 4.384e-6
5.640e+0, 4.399e-6
5.670e+0, 4.477e-6
5.700e+0, 4.400e-6
5.730e+0, 4.371e-6
5.760e+0, 4.368e-6
5.790e+0, 4.369e-6
5.820e+0, 4.330e-6
5.850e+0, 4.328e-6
5.880e+0, 4.329e-6
5.910e+0, 4.334e-6
5.940e+0, 4.356e-6
5.970e+0, 4.345e-6
6.000e+0, 4.350e-6
6.030e+0, 4.344e-6
6.060e+0, 4.345e-6
6.090e+0, 4.347e-6
6.120e+0, 4.334e-6
6.150e+0, 4.339e-6
6.180e+0, 4.333e-6
6.210e+0, 4.321e-6
6.240e+0, 4.336e-6
6.270e+0, 4.361e-6
6.300e+0, 4.362e-6
6.330e+0, 4.361e-6
6.360e+0, 4.365e-6
6.390e+0, 4.359e-6
6.420e+0, 4.370e-6
6.450e+0, 4.375e-6
6.480e+0, 4.389e-6
6.510e+0, 4.375e-6
6.540e+0, 4.385e-6
6.570e+0, 4.401e-6
6.600e+0, 4.393e-6
6.630e+0, 4.393e-6
6.660e+0, 4.372e-6
6.690e+0, 4.369e-6
6.720e+0, 4.371e-6
6.750e+0, 4.361e-6
6.780e+0, 4.365e-6
6.810e+0, 4.373e-6
6.840e+0, 4.386e-6
6.870e+0, 4.392e-6
6.900e+0, 4.382e-6
6.930e+0, 4.366e-6
6.960e+0, 4.370e-6
6.990e+0, 4.365e-6
7.020e+0, 4.342e-6
7.050e+0, 4.335e-6
7.080e+0, 4.350e-6
7.110e+0, 4.372e-6
7.140e+0, 4.369e-6
7.170e+0, 4.362e-6
7.200e+0, 4.370e-6
7.230e+0, 4.385e-6
7.260e+0, 4.378e-6
7.290e+0, 4.378e-6
7.320e+0, 4.375e-6
7.350e+0, 4.388e-6
7.380e+0, 4.390e-6
7.410e+0, 4.384e-6
7.440e+0, 4.385e-6
7.470e+0, 4.429e-6
7.500e+0, 4.439e-6
7.530e+0, 4.439e-6
7.560e+0, 4.441e-6
7.590e+0, 4.452e-6
7.620e+0, 4.449e-6
7.650e+0, 4.447e-6
7.680e+0, 4.443e-6
7.710e+0, 4.457e-6
7.740e+0, 4.580e-6
7.770e+0, 4.593e-6
7.800e+0, 4.597e-6
7.830e+0, 4.615e-6
7.860e+0, 4.623e-6
7.890e+0, 4.615e-6
7.920e+0, 4.625e-6
7.950e+0, 4.629e-6
7.980e+0, 4.635e-6
8.010e+0, 4.641e-6
8.040e+0, 4.635e-6
8.070e+0, 4.607e-6
8.100e+0, 4.646e-6
8.130e+0, 4.646e-6
8.160e+0, 4.647e-6
8.190e+0, 4.655e-6
8.220e+0, 4.667e-6
8.250e+0, 4.698e-6
8.280e+0, 4.722e-6
8.310e+0, 4.720e-6
8.340e+0, 4.709e-6
8.370e+0, 4.677e-6
8.400e+0, 4.706e-6
8.430e+0, 4.729e-6
8.460e+0, 4.731e-6
8.490e+0, 4.708e-6
8.520e+0, 4.688e-6
8.550e+0, 4.587e-6
8.580e+0, 4.540e-6
8.610e+0, 4.518e-6
8.640e+0, 4.419e-6
8.670e+0, 4.214e-6
8.700e+0, 4.133e-6
8.730e+0, 3.875e-6
8.760e+0, 3.787e-6
8.790e+0, 3.561e-6
8.820e+0, 2.994e-6
8.850e+0, 2.899e-6
8.880e+0, 2.861e-6
8.910e+0, 2.580e-6
8.940e+0, 2.205e-6
8.970e+0, 2.223e-6
9.000e+0, 2.226e-6
9.030e+0, 2.153e-6
9.060e+0, 1.844e-6
9.090e+0, 1.363e-6
9.120e+0, 1.123e-6
9.150e+0, 7.719e-7
9.180e+0, 2.447e-7
9.210e+0, 2.029e-8
9.240e+0, 1.108e-8
9.270e+0, 9.707e-9
9.300e+0, 6.754e-9
9.330e+0, 8.058e-9
9.360e+0, 8.098e-9
9.390e+0, 7.676e-9
9.420e+0, 6.528e-9
9.450e+0, 7.941e-9
9.480e+0, 4.919e-9
9.510e+0, 6.293e-9
9.540e+0, 7.548e-9
9.570e+0, 7.391e-9
9.600e+0, 7.421e-9
9.630e+0, 6.626e-9
9.660e+0, 7.342e-9
9.690e+0, 7.352e-9
9.720e+0, 5.930e-9
9.750e+0, 7.225e-9
9.780e+0, 7.401e-9
9.810e+0, 6.204e-9
9.840e+0, 1.220e-8
9.870e+0, 7.268e-7
9.900e+0, 1.738e-6
9.930e+0, 2.224e-6
9.960e+0, 2.788e-6
9.990e+0, 3.168e-6
1.002e+1, 3.681e-6
1.005e+1, 3.831e-6
1.008e+1, 3.585e-6
1.011e+1, 3.643e-6
1.014e+1, 3.410e-6
1.017e+1, 3.061e-6
1.020e+1, 2.634e-6
1.023e+1, 1.975e-6
1.026e+1, 1.411e-6
1.029e+1, 4.169e-7
1.032e+1, 1.786e-7
1.035e+1, 1.510e-7
1.038e+1, 1.020e-8
1.041e+1, 7.244e-9
1.044e+1, 5.900e-9
1.047e+1, 7.558e-9
1.050e+1, 7.225e-9
1.053e+1, 6.077e-9
1.056e+1, 5.089e-7
1.059e+1, 1.342e-6
1.062e+1, 2.000e-6
1.065e+1, 3.071e-6
1.068e+1, 3.898e-6
1.071e+1, 4.453e-6
1.074e+1, 4.922e-6
1.077e+1, 5.247e-6
1.080e+1, 5.563e-6
1.083e+1, 5.826e-6
1.086e+1, 5.678e-6
1.089e+1, 5.153e-6
1.092e+1, 4.829e-6
1.095e+1, 4.140e-6
1.098e+1, 4.431e-6
1.101e+1, 4.538e-6
1.104e+1, 4.255e-6
1.107e+1, 4.628e-6
1.110e+1, 4.729e-6
1.113e+1, 3.376e-6
1.116e+1, 2.277e-6
1.119e+1, 1.434e-6
1.122e+1, 1.469e-6
1.125e+1, 1.803e-6
1.128e+1, 1.684e-6
1.131e+1, 1.282e-6
1.134e+1, 1.446e-6
1.137e+1, 1.741e-6
1.140e+1, 2.050e-6
1.143e+1, 2.554e-6
1.146e+1, 2.867e-6
1.149e+1, 2.808e-6
1.152e+1, 3.001e-6
1.155e+1, 3.155e-6
1.158e+1, 3.534e-6
1.161e+1, 3.798e-6
1.164e+1, 4.114e-6
1.167e+1, 4.025e-6
1.170e+1, 4.103e-6
1.173e+1, 4.286e-6
1.176e+1, 4.535e-6
1.179e+1, 4.873e-6
1.182e+1, 5.159e-6
1.185e+1, 5.374e-6
1.188e+1, 5.360e-6
1.191e+1, 5.247e-6
1.194e+1, 5.207e-6
1.197e+1, 5.327e-6
1.200e+1, 5.591e-6
1.203e+1, 5.620e-6
1.206e+1, 5.563e-6
1.209e+1, 5.619e-6
1.212e+1, 5.778e-6
1.215e+1, 5.850e-6
1.218e+1, 5.775e-6
1.221e+1, 5.589e-6
1.224e+1, 5.549e-6
1.227e+1, 5.265e-6
1.230e+1, 5.093e-6
1.233e+1, 4.880e-6
1.236e+1, 4.779e-6
1.239e+1, 4.802e-6
1.242e+1, 4.900e-6
1.245e+1, 5.168e-6
1.248e+1, 5.408e-6
1.251e+1, 5.518e-6
1.254e+1, 5.554e-6
1.257e+1, 5.555e-6
1.260e+1, 5.458e-6
1.263e+1, 5.397e-6
1.266e+1, 5.305e-6
1.269e+1, 5.256e-6
1.272e+1, 5.105e-6
1.275e+1, 4.810e-6
1.278e+1, 4.757e-6
1.281e+1, 4.578e-6
1.284e+1, 4.629e-6
1.287e+1, 4.300e-6
1.290e+1, 3.737e-6
1.293e+1, 3.395e-6
1.296e+1, 2.814e-6
1.299e+1, 2.481e-6
1.302e+1, 2.252e-6
1.305e+1, 1.563e-6
1.308e+1, 8.948e-7
1.311e+1, 4.552e-7
1.314e+1, 4.393e-8
1.317e+1, 8.490e-9
1.320e+1, 7.342e-9
1.323e+1, 7.862e-9
1.326e+1, 7.607e-9
1.329e+1, 7.499e-9
1.332e+1, 7.382e-9
1.335e+1, 7.323e-9
1.338e+1, 7.372e-9
1.341e+1, 5.547e-9
1.344e+1, 7.254e-9
1.347e+1, 7.283e-9
1.350e+1, 6.175e-9
1.353e+1, 7.274e-9
1.356e+1, 6.263e-9
1.359e+1, 4.340e-9
1.362e+1, 6.587e-9
1.365e+1, 7.166e-9
1.368e+1, 7.176e-9
1.371e+1, 5.557e-9
1.374e+1, 7.195e-9
1.377e+1, 7.176e-9
1.380e+1, 6.714e-9
1.383e+1, 7.048e-9
1.386e+1, 5.187e-8
1.389e+1, 2.745e-7
1.392e+1, 5.351e-7
1.395e+1, 9.525e-7
1.398e+1, 1.623e-6
1.401e+1, 2.291e-6
1.404e+1, 2.500e-6
1.407e+1, 3.003e-6
1.410e+1, 3.228e-6
1.413e+1, 3.282e-6
1.416e+1, 3.451e-6
1.419e+1, 3.625e-6
1.422e+1, 3.701e-6
1.425e+1, 3.822e-6
1.428e+1, 3.909e-6
1.431e+1, 3.984e-6
1.434e+1, 4.078e-6
1.437e+1, 4.322e-6
1.440e+1, 4.572e-6
1.443e+1, 4.638e-6
1.446e+1, 4.817e-6
1.449e+1, 4.893e-6
1.452e+1, 4.919e-6
1.455e+1, 4.905e-6
1.458e+1, 4.866e-6
1.461e+1, 4.846e-6
1.464e+1, 4.869e-6
1.467e+1, 4.885e-6
1.470e+1, 4.859e-6
1.473e+1, 4.902e-6
1.476e+1, 4.934e-6
1.479e+1, 4.918e-6
1.482e+1, 4.898e-6
1.485e+1, 4.903e-6
1.488e+1, 4.894e-6
1.491e+1, 4.915e-6
1.494e+1, 4.984e-6
1.497e+1, 5.012e-6
1.500e+1, 5.018e-6
1.503e+1, 5.007e-6
1.506e+1, 5.023e-6
1.509e+1, 5.053e-6
1.512e+1, 5.087e-6
1.515e+1, 5.110e-6
1.518e+1, 5.116e-6
1.521e+1, 5.161e-6
1.524e+1, 5.223e-6
1.527e+1, 5.206e-6
1.530e+1, 5.159e-6
1.533e+1, 5.126e-6
1.536e+1, 5.061e-6
1.539e+1, 5.079e-6
1.542e+1, 5.076e-6
1.545e+1, 4.950e-6
1.548e+1, 4.934e-6
1.551e+1, 4.893e-6
1.554e+1, 4.893e-6
1.557e+1, 4.905e-6
1.560e+1, 4.881e-6
1.563e+1, 4.789e-6
1.566e+1, 4.622e-6
1.569e+1, 4.575e-6
1.572e+1, 4.462e-6
1.575e+1, 4.375e-6
1.578e+1, 4.312e-6
1.581e+1, 4.388e-6
1.584e+1, 4.406e-6
1.587e+1, 4.468e-6
1.590e+1, 4.504e-6
1.593e+1, 4.517e-6
1.596e+1, 4.475e-6
1.599e+1, 4.443e-6
1.602e+1, 4.350e-6
1.605e+1, 4.330e-6
1.608e+1, 4.433e-6
1.611e+1, 4.359e-6
1.614e+1, 4.253e-6
1.617e+1, 4.246e-6
1.620e+1, 4.225e-6
1.623e+1, 4.197e-6
1.626e+1, 4.185e-6
1.629e+1, 4.052e-6
1.632e+1, 4.065e-6
1.635e+1, 4.092e-6
1.638e+1, 4.122e-6
1.641e+1, 4.151e-6
1.644e+1, 4.185e-6
1.647e+1, 4.274e-6
1.650e+1, 4.307e-6
1.653e+1, 4.319e-6
1.656e+1, 4.314e-6
1.659e+1, 4.353e-6
1.662e+1, 4.361e-6
1.665e+1, 4.347e-6
1.668e+1, 4.336e-6
1.671e+1, 4.292e-6
1.674e+1, 4.261e-6
1.677e+1, 4.194e-6
1.680e+1, 4.106e-6
1.683e+1, 4.124e-6
1.686e+1, 4.166e-6
1.689e+1, 4.167e-6
1.692e+1, 4.161e-6
1.695e+1, 4.181e-6
1.698e+1, 4.186e-6
1.701e+1, 4.186e-6
1.704e+1, 4.179e-6
1.707e+1, 4.189e-6
1.710e+1, 4.182e-6
1.713e+1, 4.190e-6
1.716e+1, 4.193e-6
1.719e+1, 4.193e-6
1.722e+1, 4.252e-6
1.725e+1, 4.308e-6
1.728e+1, 4.316e-6
1.731e+1, 4.316e-6
1.734e+1, 4.303e-6
1.737e+1, 4.274e-6
1.740e+1, 4.266e-6
1.743e+1, 4.262e-6
1.746e+1, 4.260e-6
1.749e+1, 4.259e-6
1.752e+1, 4.262e-6
1.755e+1, 4.264e-6
1.758e+1, 4.264e-6
1.761e+1, 4.270e-6
1.764e+1, 4.273e-6
1.767e+1, 4.284e-6
1.770e+1, 4.291e-6
1.773e+1, 4.294e-6
1.776e+1, 4.300e-6
1.779e+1, 4.310e-6
1.782e+1, 4.314e-6
1.785e+1, 4.311e-6
1.788e+1, 4.327e-6
1.791e+1, 4.330e-6
1.794e+1, 4.380e-6
1.797e+1, 4.416e-6
1.800e+1, 4.436e-6
1.803e+1, 4.467e-6
1.806e+1, 4.518e-6
1.809e+1, 4.539e-6
1.812e+1, 4.546e-6
1.815e+1, 4.582e-6
1.818e+1, 4.635e-6
1.821e+1, 4.651e-6
1.824e+1, 4.670e-6
1.827e+1, 4.667e-6
1.830e+1, 4.661e-6
1.833e+1, 4.651e-6
1.836e+1, 4.641e-6
1.839e+1, 4.590e-6
1.842e+1, 4.569e-6
1.845e+1, 4.616e-6
1.848e+1, 4.610e-6
1.851e+1, 4.613e-6
1.854e+1, 4.625e-6
1.857e+1, 4.581e-6
1.860e+1, 4.563e-6
1.863e+1, 4.567e-6
1.866e+1, 4.577e-6
1.869e+1, 4.572e-6
1.872e+1, 4.563e-6
1.875e+1, 4.576e-6
1.878e+1, 4.611e-6
1.881e+1, 4.628e-6
1.884e+1, 4.635e-6
1.887e+1, 4.612e-6
1.890e+1, 4.565e-6
1.893e+1, 4.556e-6
1.896e+1, 4.558e-6
1.899e+1, 4.555e-6
1.902e+1, 4.555e-6
1.905e+1, 4.552e-6
1.908e+1, 4.548e-6
1.911e+1, 4.528e-6
1.914e+1, 4.522e-6
1.917e+1, 4.511e-6
1.920e+1, 4.516e-6
1.923e+1, 4.521e-6
1.926e+1, 4.521e-6
1.929e+1, 4.544e-6
1.932e+1, 4.543e-6
1.935e+1, 4.513e-6
1.938e+1, 4.485e-6
1.941e+1, 4.484e-6
1.944e+1, 4.511e-6
1.947e+1, 4.532e-6
1.950e+1, 4.475e-6
1.953e+1, 4.470e-6
1.956e+1, 4.474e-6
1.959e+1, 4.489e-6
1.962e+1, 4.481e-6
1.965e+1, 4.475e-6
1.968e+1, 4.483e-6
1.971e+1, 4.487e-6
1.974e+1, 4.486e-6
1.977e+1, 4.503e-6
1.980e+1, 4.551e-6
1.983e+1, 4.560e-6
1.986e+1, 4.559e-6
1.989e+1, 4.571e-6
1.992e+1, 4.582e-6
1.995e+1, 4.594e-6
1.998e+1, 4.600e-6
2.001e+1, 4.631e-6
2.004e+1, 4.646e-6
2.007e+1, 4.643e-6
2.010e+1, 4.637e-6
2.013e+1, 4.613e-6
2.016e+1, 4.602e-6
2.019e+1, 4.595e-6
2.022e+1, 4.590e-6
2.025e+1, 4.551e-6
2.028e+1, 4.518e-6
2.031e+1, 4.523e-6
2.034e+1, 4.557e-6
2.037e+1, 4.552e-6
2.040e+1, 4.562e-6
2.043e+1, 4.561e-6
2.046e+1, 4.554e-6
2.049e+1, 4.556e-6
2.052e+1, 4.577e-6
2.055e+1, 4.584e-6
2.058e+1, 4.572e-6
2.061e+1, 4.573e-6
2.064e+1, 4.569e-6
2.067e+1, 4.572e-6
2.070e+1, 4.576e-6
2.073e+1, 4.586e-6
2.076e+1, 4.590e-6
2.079e+1, 4.588e-6
2.082e+1, 4.598e-6
2.085e+1, 4.602e-6
2.088e+1, 4.599e-6
2.091e+1, 4.593e-6
2.094e+1, 4.584e-6
2.097e+1, 4.557e-6
2.100e+1, 4.537e-6
2.103e+1, 4.548e-6
2.106e+1, 4.590e-6
2.109e+1, 4.602e-6
2.112e+1, 4.601e-6
2.115e+1, 4.603e-6
2.118e+1, 4.607e-6
2.121e+1, 4.617e-6
2.124e+1, 4.624e-6
2.127e+1, 4.616e-6
2.130e+1, 4.613e-6
2.133e+1, 4.626e-6
2.136e+1, 4.631e-6
2.139e+1, 4.633e-6
2.142e+1, 4.630e-6
2.145e+1, 4.659e-6
2.148e+1, 4.670e-6
2.151e+1, 4.665e-6
2.154e+1, 4.674e-6
2.157e+1, 4.674e-6
2.160e+1, 4.696e-6
2.163e+1, 4.678e-6
2.166e+1, 4.697e-6
2.169e+1, 4.716e-6
2.172e+1, 4.723e-6
2.175e+1, 4.725e-6
2.178e+1, 4.717e-6
2.181e+1, 4.731e-6
2.184e+1, 4.754e-6
2.187e+1, 4.751e-6
2.190e+1, 4.739e-6
2.193e+1, 4.742e-6
2.196e+1, 4.747e-6
2.199e+1, 4.766e-6
2.202e+1, 4.776e-6
2.205e+1, 4.767e-6
2.208e+1, 4.765e-6
2.211e+1, 4.769e-6
2.214e+1, 4.784e-6
2.217e+1, 4.771e-6
2.220e+1, 4.773e-6
2.223e+1, 4.781e-6
2.226e+1, 4.770e-6
2.229e+1, 4.780e-6
2.232e+1, 4.782e-6
2.235e+1, 4.796e-6
2.238e+1, 4.798e-6
2.241e+1, 4.804e-6
2.244e+1, 4.814e-6
2.247e+1, 4.815e-6
2.250e+1, 4.808e-6
2.253e+1, 4.804e-6
2.256e+1, 4.799e-6
2.259e+1, 4.776e-6
2.262e+1, 4.753e-6
2.265e+1, 4.772e-6
2.268e+1, 4.794e-6
2.271e+1, 4.811e-6
2.274e+1, 4.807e-6
2.277e+1, 4.798e-6
2.280e+1, 4.756e-6
2.283e+1, 4.737e-6
2.286e+1, 4.728e-6
2.289e+1, 4.750e-6
2.292e+1, 4.784e-6
2.295e+1, 4.793e-6
2.298e+1, 4.802e-6
2.301e+1, 4.804e-6
2.304e+1, 4.813e-6
2.307e+1, 4.812e-6
2.310e+1, 4.801e-6
2.313e+1, 4.807e-6
2.316e+1, 4.819e-6
2.319e+1, 4.812e-6
2.322e+1, 4.810e-6
2.325e+1, 4.815e-6
2.328e+1, 4.809e-6
2.331e+1, 4.813e-6
2.334e+1, 4.820e-6
2.337e+1, 4.813e-6
2.340e+1, 4.805e-6
2.343e+1, 4.791e-6
2.346e+1, 4.796e-6
2.349e+1, 4.807e-6
2.352e+1, 4.828e-6
2.355e+1, 4.833e-6
2.358e+1, 4.812e-6
2.361e+1, 4.813e-6
2.364e+1, 4.823e-6
2.367e+1, 4.833e-6
2.370e+1, 4.836e-6
2.373e+1, 4.833e-6
2.376e+1, 4.833e-6
2.379e+1, 4.813e-6
2.382e+1, 4.816e-6
2.385e+1, 4.836e-6
2.388e+1, 4.840e-6
2.391e+1, 4.864e-6
2.394e+1, 4.871e-6
2.397e+1, 4.866e-6
2.400e+1, 4.843e-6
2.403e+1, 4.835e-6
2.406e+1, 4.826e-6
2.409e+1, 4.819e-6
2.412e+1, 4.812e-6
2.415e+1, 4.803e-6
2.418e+1, 4.783e-6
2.421e+1, 4.775e-6
2.424e+1, 4.787e-6
2.427e+1, 4.808e-6
2.430e+1, 4.835e-6
2.433e+1, 4.854e-6
2.436e+1, 4.865e-6
2.439e+1, 4.875e-6
2.442e+1, 4.891e-6
2.445e+1, 4.891e-6
2.448e+1, 4.882e-6
2.451e+1, 4.862e-6
2.454e+1, 4.865e-6
2.457e+1, 4.878e-6
2.460e+1, 4.649e-6
2.463e+1, 4.699e-6
2.466e+1, 4.803e-6
2.469e+1, 4.828e-6
2.472e+1, 4.906e-6
2.475e+1, 4.908e-6
2.478e+1, 4.911e-6
2.481e+1, 4.910e-6
2.484e+1, 4.970e-6
2.487e+1, 4.980e-6
2.490e+1, 4.996e-6
2.493e+1, 5.001e-6
2.496e+1, 5.009e-6
2.499e+1, 5.015e-6
2.502e+1, 4.988e-6
2.505e+1, 4.939e-6
2.508e+1, 4.913e-6
2.511e+1, 4.910e-6
2.514e+1, 4.903e-6
2.517e+1, 4.902e-6
2.520e+1, 4.893e-6
2.523e+1, 4.890e-6
2.526e+1, 4.895e-6
2.529e+1, 4.893e-6
2.532e+1, 4.880e-6
2.535e+1, 4.874e-6
2.538e+1, 4.861e-6
2.541e+1, 4.845e-6
2.544e+1, 4.828e-6
2.547e+1, 4.833e-6
2.550e+1, 4.843e-6
2.553e+1, 4.842e-6
2.556e+1, 4.839e-6
2.559e+1, 4.827e-6
2.562e+1, 4.821e-6
2.565e+1, 4.814e-6
2.568e+1, 4.814e-6
2.571e+1, 4.809e-6
2.574e+1, 4.806e-6
2.577e+1, 4.809e-6
2.580e+1, 4.823e-6
2.583e+1, 4.822e-6
2.586e+1, 4.838e-6
2.589e+1, 4.850e-6
2.592e+1, 4.847e-6
2.595e+1, 4.839e-6
2.598e+1, 4.834e-6
2.601e+1, 4.842e-6
2.604e+1, 4.843e-6
2.607e+1, 4.842e-6
2.610e+1, 4.851e-6
2.613e+1, 4.855e-6
2.616e+1, 4.845e-6
2.619e+1, 4.841e-6
2.622e+1, 4.844e-6
2.625e+1, 4.845e-6
2.628e+1, 4.847e-6
2.631e+1, 4.864e-6
2.634e+1, 4.881e-6
2.637e+1, 4.897e-6
2.640e+1, 4.921e-6
2.643e+1, 4.969e-6
2.646e+1, 4.979e-6
2.649e+1, 4.967e-6
2.652e+1, 4.964e-6
2.655e+1, 4.966e-6
2.658e+1, 4.948e-6
2.661e+1, 4.956e-6
2.664e+1, 4.954e-6
2.667e+1, 4.959e-6
2.670e+1, 4.963e-6
2.673e+1, 4.956e-6
2.676e+1, 4.957e-6
2.679e+1, 4.961e-6
2.682e+1, 4.959e-6
2.685e+1, 4.960e-6
2.688e+1, 4.967e-6
2.691e+1, 4.970e-6
2.694e+1, 4.978e-6
2.697e+1, 4.978e-6
2.700e+1, 4.977e-6
2.703e+1, 4.977e-6
2.706e+1, 4.970e-6
2.709e+1, 4.977e-6
2.712e+1, 4.984e-6
2.715e+1, 4.996e-6
2.718e+1, 5.000e-6
2.721e+1, 5.008e-6
2.724e+1, 5.010e-6
2.727e+1, 4.999e-6
2.730e+1, 4.997e-6
2.733e+1, 4.994e-6
2.736e+1, 4.994e-6
2.739e+1, 4.990e-6
2.742e+1, 4.996e-6
2.745e+1, 5.018e-6
2.748e+1, 5.025e-6
2.751e+1, 5.041e-6
2.754e+1, 5.048e-6
2.757e+1, 5.071e-6
2.760e+1, 5.077e-6
2.763e+1, 5.077e-6
2.766e+1, 5.088e-6
2.769e+1, 5.086e-6
2.772e+1, 5.091e-6
2.775e+1, 5.094e-6
2.778e+1, 5.087e-6
2.781e+1, 5.090e-6
2.784e+1, 5.091e-6
2.787e+1, 5.087e-6
2.790e+1, 5.093e-6
2.793e+1, 5.091e-6
2.796e+1, 5.080e-6
2.799e+1, 5.081e-6
2.802e+1, 5.079e-6
2.805e+1, 5.069e-6
2.808e+1, 5.070e-6
2.811e+1, 5.068e-6
2.814e+1, 5.071e-6
2.817e+1, 5.084e-6
2.820e+1, 5.085e-6
2.823e+1, 5.092e-6
2.826e+1, 5.095e-6
2.829e+1, 5.100e-6
2.832e+1, 5.101e-6
2.835e+1, 5.096e-6
2.838e+1, 5.100e-6
2.841e+1, 5.104e-6
2.844e+1, 5.105e-6
2.847e+1, 5.116e-6
2.850e+1, 5.114e-6
2.853e+1, 5.109e-6
2.856e+1, 5.091e-6
2.859e+1, 5.073e-6
2.862e+1, 5.063e-6
2.865e+1, 5.069e-6
2.868e+1, 5.077e-6
2.871e+1, 5.085e-6
2.874e+1, 5.062e-6
2.877e+1, 5.075e-6
2.880e+1, 5.071e-6
2.883e+1, 5.046e-6
2.886e+1, 5.037e-6
2.889e+1, 5.041e-6
2.892e+1, 5.040e-6
2.895e+1, 5.031e-6
2.898e+1, 5.039e-6
2.901e+1, 5.021e-6
2.904e+1, 5.008e-6
2.907e+1, 5.004e-6
2.910e+1, 5.006e-6
2.913e+1, 5.002e-6
2.916e+1, 5.018e-6
2.919e+1, 5.031e-6
2.922e+1, 5.032e-6
2.925e+1, 5.029e-6
2.928e+1, 5.026e-6
2.931e+1, 5.021e-6
2.934e+1, 5.019e-6
2.937e+1, 5.019e-6
2.940e+1, 5.021e-6
2.943e+1, 5.023e-6
2.946e+1, 5.017e-6
2.949e+1, 5.016e-6
2.952e+1, 5.015e-6
2.955e+1, 5.019e-6
2.958e+1, 5.022e-6
2.961e+1, 5.023e-6
2.964e+1, 5.022e-6
2.967e+1, 5.030e-6
2.970e+1, 5.029e-6
2.973e+1, 5.030e-6
2.976e+1, 5.032e-6
2.979e+1, 5.030e-6
2.982e+1, 5.035e-6
2.985e+1, 5.031e-6
2.988e+1, 5.027e-6
2.991e+1, 5.029e-6
2.994e+1, 5.031e-6
2.997e+1, 5.037e-6
3.000e+1, 5.037e-6
3.003e+1, 5.043e-6
3.006e+1, 5.045e-6
3.009e+1, 5.044e-6
3.012e+1, 5.043e-6
3.015e+1, 5.041e-6
3.018e+1, 5.040e-6
3.021e+1, 5.039e-6
3.024e+1, 5.034e-6
3.027e+1, 5.014e-6
3.030e+1, 5.000e-6
3.033e+1, 4.997e-6
3.036e+1, 4.993e-6
3.039e+1, 4.993e-6
3.042e+1, 5.002e-6
3.045e+1, 5.010e-6
3.048e+1, 5.017e-6
3.051e+1, 5.015e-6
3.054e+1, 5.016e-6
3.057e+1, 5.022e-6
3.060e+1, 5.026e-6
3.063e+1, 5.038e-6
3.066e+1, 5.040e-6
3.069e+1, 5.047e-6
3.072e+1, 5.048e-6
3.075e+1, 5.059e-6
3.078e+1, 5.072e-6
3.081e+1, 5.073e-6
3.084e+1, 5.074e-6
3.087e+1, 5.075e-6
3.090e+1, 5.079e-6
3.093e+1, 5.080e-6
3.096e+1, 5.078e-6
3.099e+1, 5.074e-6
3.102e+1, 5.067e-6
3.105e+1, 5.061e-6
3.108e+1, 5.060e-6
3.111e+1, 5.055e-6
3.114e+1, 5.055e-6
3.117e+1, 5.050e-6
3.120e+1, 5.053e-6
3.123e+1, 5.041e-6
3.126e+1, 5.040e-6
3.129e+1, 5.044e-6
3.132e+1, 5.070e-6
3.135e+1, 5.089e-6
3.138e+1, 5.117e-6
3.141e+1, 5.115e-6
3.144e+1, 5.108e-6
3.147e+1, 5.118e-6
3.150e+1, 5.126e-6
3.153e+1, 5.131e-6
3.156e+1, 5.144e-6
3.159e+1, 5.101e-6
3.162e+1, 5.059e-6
3.165e+1, 4.926e-6
3.168e+1, 4.876e-6
3.171e+1, 4.805e-6
3.174e+1, 4.788e-6
3.177e+1, 4.789e-6
3.180e+1, 4.805e-6
3.183e+1, 4.839e-6
3.186e+1, 4.869e-6
3.189e+1, 4.898e-6
3.192e+1, 4.964e-6
3.195e+1, 4.980e-6
3.198e+1, 5.014e-6
3.201e+1, 5.004e-6
3.204e+1, 5.097e-6
3.207e+1, 5.179e-6
3.210e+1, 5.216e-6
3.213e+1, 5.246e-6
3.216e+1, 5.268e-6
3.219e+1, 5.335e-6
3.222e+1, 5.365e-6
3.225e+1, 5.374e-6
3.228e+1, 5.325e-6
3.231e+1, 5.281e-6
3.234e+1, 5.361e-6
3.237e+1, 5.408e-6
3.240e+1, 5.400e-6
3.243e+1, 5.392e-6
3.246e+1, 5.397e-6
3.249e+1, 5.361e-6
3.252e+1, 5.312e-6
3.255e+1, 5.288e-6
3.258e+1, 5.262e-6
3.261e+1, 5.175e-6
3.264e+1, 5.151e-6
3.267e+1, 5.158e-6
3.270e+1, 5.177e-6
3.273e+1, 5.307e-6
3.276e+1, 5.365e-6
3.279e+1, 5.389e-6
3.282e+1, 5.514e-6
3.285e+1, 5.505e-6
3.288e+1, 5.570e-6
3.291e+1, 5.525e-6
3.294e+1, 5.472e-6
3.297e+1, 5.282e-6
3.300e+1, 5.210e-6
3.303e+1, 5.071e-6
3.306e+1, 5.028e-6
3.309e+1, 4.993e-6
3.312e+1, 5.014e-6
3.315e+1, 5.121e-6
3.318e+1, 5.177e-6
3.321e+1, 5.220e-6
3.324e+1, 5.271e-6
3.327e+1, 5.312e-6
3.330e+1, 5.362e-6
3.333e+1, 5.537e-6
3.336e+1, 5.628e-6
3.339e+1, 5.696e-6
3.342e+1, 5.773e-6
3.345e+1, 5.820e-6
3.348e+1, 5.864e-6
3.351e+1, 5.870e-6
3.354e+1, 5.833e-6
3.357e+1, 5.807e-6
3.360e+1, 5.879e-6
3.363e+1, 5.903e-6
3.366e+1, 5.906e-6
3.369e+1, 5.915e-6
3.372e+1, 5.870e-6
3.375e+1, 5.786e-6
3.378e+1, 5.721e-6
3.381e+1, 5.669e-6
3.384e+1, 5.661e-6
3.387e+1, 5.694e-6
3.390e+1, 5.697e-6
3.393e+1, 5.753e-6
3.396e+1, 5.774e-6
3.399e+1, 5.799e-6
3.402e+1, 5.870e-6
3.405e+1, 5.911e-6
3.408e+1, 5.937e-6
3.411e+1, 5.974e-6
3.414e+1, 5.995e-6
3.417e+1, 6.018e-6
3.420e+1, 6.047e-6
3.423e+1, 6.091e-6
3.426e+1, 6.279e-6
3.429e+1, 6.343e-6
3.432e+1, 6.395e-6
3.435e+1, 6.431e-6
3.438e+1, 6.467e-6
3.441e+1, 6.503e-6
3.444e+1, 6.658e-6
3.447e+1, 6.709e-6
3.450e+1, 6.699e-6
3.453e+1, 6.715e-6
3.456e+1, 6.782e-6
3.459e+1, 6.762e-6
3.462e+1, 6.771e-6
3.465e+1, 6.756e-6
3.468e+1, 6.750e-6
3.471e+1, 6.752e-6
3.474e+1, 6.774e-6
3.477e+1, 6.770e-6
3.480e+1, 6.775e-6
3.483e+1, 6.774e-6
3.486e+1, 6.765e-6
3.489e+1, 6.734e-6
3.492e+1, 6.738e-6
3.495e+1, 6.732e-6
3.498e+1, 6.701e-6
3.501e+1, 6.657e-6
3.504e+1, 6.671e-6
3.507e+1, 6.672e-6
3.510e+1, 6.658e-6
3.513e+1, 6.606e-6
3.516e+1, 6.514e-6
3.519e+1, 6.450e-6
3.522e+1, 6.317e-6
3.525e+1, 6.297e-6
3.528e+1, 6.334e-6
3.531e+1, 6.416e-6
3.534e+1, 6.340e-6
3.537e+1, 6.311e-6
3.540e+1, 6.301e-6
3.543e+1, 6.293e-6
3.546e+1, 6.277e-6
3.549e+1, 6.286e-6
3.552e+1, 6.292e-6
3.555e+1, 6.300e-6
3.558e+1, 6.314e-6
3.561e+1, 6.402e-6
3.564e+1, 6.442e-6
3.567e+1, 6.431e-6
3.570e+1, 6.433e-6
3.573e+1, 6.423e-6
3.576e+1, 6.279e-6
3.579e+1, 6.240e-6
3.582e+1, 6.247e-6
3.585e+1, 6.277e-6
3.588e+1, 6.288e-6
3.591e+1, 6.299e-6
3.594e+1, 6.309e-6
3.597e+1, 6.292e-6
3.600e+1, 6.272e-6
3.603e+1, 6.224e-6
3.606e+1, 6.173e-6
3.609e+1, 6.202e-6
3.612e+1, 6.202e-6
3.615e+1, 6.202e-6
3.618e+1, 6.211e-6
3.621e+1, 6.208e-6
3.624e+1, 6.215e-6
3.627e+1, 6.236e-6
3.630e+1, 6.239e-6
3.633e+1, 6.220e-6
3.636e+1, 6.198e-6
3.639e+1, 6.184e-6
3.642e+1, 6.210e-6
3.645e+1, 6.233e-6
3.648e+1, 6.256e-6
3.651e+1, 6.286e-6
3.654e+1, 6.317e-6
3.657e+1, 6.318e-6
3.660e+1, 6.318e-6
3.663e+1, 6.335e-6
3.666e+1, 6.345e-6
3.669e+1, 6.339e-6
3.672e+1, 6.342e-6
3.675e+1, 6.345e-6
3.678e+1, 6.353e-6
3.681e+1, 6.355e-6
3.684e+1, 6.365e-6
3.687e+1, 6.360e-6
3.690e+1, 6.356e-6
3.693e+1, 6.344e-6
3.696e+1, 6.337e-6
3.699e+1, 6.345e-6
3.702e+1, 6.358e-6
3.705e+1, 6.360e-6
3.708e+1, 6.353e-6
3.711e+1, 6.261e-6
3.714e+1, 6.106e-6
3.717e+1, 6.022e-6
3.720e+1, 6.046e-6
3.723e+1, 6.149e-6
3.726e+1, 6.197e-6
3.729e+1, 6.218e-6
3.732e+1, 6.218e-6
3.735e+1, 6.231e-6
3.738e+1, 6.233e-6
3.741e+1, 6.248e-6
3.744e+1, 6.271e-6
3.747e+1, 6.325e-6
3.750e+1, 6.347e-6
3.753e+1, 6.350e-6
3.756e+1, 6.344e-6
3.759e+1, 6.356e-6
3.762e+1, 6.343e-6
3.765e+1, 6.351e-6
3.768e+1, 6.362e-6
3.771e+1, 6.358e-6
3.774e+1, 6.342e-6
3.777e+1, 6.338e-6
